* Measurement data measured by REW V5.20.9
* Source: Input device not selected, no input selected, L, volume: no control. Timing signal peak level -56,3 dBFS, measurement signal peak level -8,9 dBFS
* Format: 256k Log Swept Sine, 1 sweep at -12,0 dBFS using an acoustic timing reference
* Dated: 26.12.2022 22:00:58
* REW Settings:
*  C-weighting compensation: Off
*  Target level: 75.0 dB
* Note: Delay 0,1357 ms (47 mm, 1,83 in) using estimated IR delay relative to Acoustic reference on  L with no timing offset
* Measurement: BQEYZ Winter
* Smoothing: 1/12 octave
* Frequency Step: 96 ppo
* Start Frequency: 20.141602 Hz
*
* Freq(Hz) SPL(dB) Phase(degrees)
20.141602 114.195 -117.2184
20.287556 114.210 -117.3749
20.434568 114.231 -117.6009
20.582645 114.257 -117.8756
20.731796 114.286 -118.1812
20.882027 114.316 -118.5048
21.033346 114.348 -118.8381
21.185763 114.380 -119.1766
21.339284 114.412 -119.5174
21.493917 114.444 -119.8595
21.649671 114.476 -120.2026
21.806553 114.508 -120.5466
21.964572 114.541 -120.8920
22.123737 114.574 -121.2390
22.284054 114.607 -121.5883
22.445534 114.640 -121.9401
22.608183 114.673 -122.2946
22.772012 114.706 -122.6517
22.937027 114.739 -123.0113
23.103238 114.771 -123.3726
23.270654 114.802 -123.7350
23.439282 114.832 -124.0973
23.609133 114.862 -124.4585
23.780215 114.891 -124.8173
23.952536 114.920 -125.1728
24.126106 114.948 -125.5243
24.300934 114.976 -125.8712
24.477028 115.004 -126.2137
24.654399 115.032 -126.5519
24.833055 115.060 -126.8867
25.013005 115.088 -127.2189
25.194260 115.117 -127.5496
25.376828 115.146 -127.8799
25.560719 115.175 -128.2104
25.745942 115.203 -128.5420
25.932508 115.232 -128.8748
26.120426 115.260 -129.2090
26.309705 115.287 -129.5442
26.500356 115.314 -129.8800
26.692388 115.341 -130.2161
26.885812 115.367 -130.5520
27.080638 115.392 -130.8875
27.276876 115.417 -131.2224
27.474535 115.442 -131.5570
27.673627 115.467 -131.8912
27.874161 115.491 -132.2254
28.076149 115.516 -132.5597
28.279600 115.540 -132.8941
28.484526 115.564 -133.2285
28.690937 115.589 -133.5625
28.898843 115.612 -133.8957
29.108256 115.636 -134.2273
29.319186 115.659 -134.5569
29.531645 115.682 -134.8841
29.745644 115.705 -135.2086
29.961193 115.727 -135.5308
30.178304 115.750 -135.8509
30.396989 115.772 -136.1698
30.617258 115.795 -136.4881
30.839123 115.817 -136.8068
31.062596 115.839 -137.1264
31.287688 115.861 -137.4472
31.514412 115.883 -137.7691
31.742778 115.904 -138.0918
31.972800 115.925 -138.4144
32.204488 115.946 -138.7362
32.437855 115.966 -139.0563
32.672913 115.986 -139.3743
32.909674 116.005 -139.6898
33.148151 116.025 -140.0031
33.388356 116.044 -140.3145
33.630302 116.063 -140.6246
33.874001 116.081 -140.9338
34.119466 116.100 -141.2425
34.366710 116.117 -141.5508
34.615745 116.134 -141.8582
34.866585 116.151 -142.1643
35.119243 116.167 -142.4683
35.373731 116.182 -142.7694
35.630064 116.197 -143.0672
35.888254 116.212 -143.3612
36.148315 116.226 -143.6512
36.410261 116.240 -143.9370
36.674104 116.254 -144.2185
36.939860 116.268 -144.4955
37.207542 116.283 -144.7679
37.477163 116.297 -145.0360
37.748738 116.312 -145.3002
38.022281 116.328 -145.5615
38.297806 116.344 -145.8213
38.575327 116.362 -146.0814
38.854860 116.380 -146.3434
39.136419 116.399 -146.6089
39.420017 116.418 -146.8788
39.705671 116.438 -147.1536
39.993395 116.459 -147.4331
40.283203 116.479 -147.7168
40.575112 116.499 -148.0041
40.869136 116.518 -148.2940
41.165290 116.537 -148.5858
41.463591 116.555 -148.8787
41.764053 116.572 -149.1717
42.066693 116.588 -149.4640
42.371525 116.604 -149.7551
42.678567 116.618 -150.0452
42.987834 116.632 -150.3345
43.299341 116.646 -150.6241
43.613106 116.660 -150.9147
43.929145 116.673 -151.2066
44.247473 116.686 -151.4998
44.568109 116.699 -151.7936
44.891068 116.712 -152.0869
45.216367 116.724 -152.3790
45.544023 116.736 -152.6691
45.874054 116.748 -152.9570
46.206476 116.760 -153.2430
46.541307 116.772 -153.5280
46.878565 116.783 -153.8131
47.218266 116.795 -154.0991
47.560429 116.806 -154.3867
47.905072 116.816 -154.6752
48.252212 116.826 -154.9625
48.601867 116.835 -155.2461
48.954056 116.844 -155.5233
49.308798 116.852 -155.7929
49.666109 116.861 -156.0559
50.026010 116.870 -156.3153
50.388520 116.880 -156.5746
50.753656 116.890 -156.8364
51.121437 116.900 -157.1013
51.491884 116.910 -157.3679
51.865016 116.919 -157.6338
52.240851 116.928 -157.8967
52.619410 116.937 -158.1556
53.000712 116.946 -158.4113
53.384777 116.955 -158.6658
53.771625 116.964 -158.9218
54.161276 116.974 -159.1820
54.553751 116.982 -159.4480
54.949070 116.990 -159.7196
55.347254 116.998 -159.9946
55.748323 117.004 -160.2696
56.152298 117.011 -160.5412
56.559201 117.016 -160.8073
56.969052 117.022 -161.0677
57.381873 117.029 -161.3239
57.797686 117.035 -161.5780
58.216512 117.041 -161.8322
58.638373 117.047 -162.0882
59.063291 117.053 -162.3470
59.491288 117.059 -162.6091
59.922386 117.065 -162.8735
60.356608 117.071 -163.1381
60.793977 117.076 -163.4004
61.234515 117.081 -163.6585
61.678246 117.085 -163.9119
62.125192 117.089 -164.1617
62.575377 117.093 -164.4096
63.028824 117.096 -164.6576
63.485557 117.100 -164.9067
63.945599 117.103 -165.1573
64.408975 117.107 -165.4087
64.875709 117.110 -165.6596
65.345825 117.113 -165.9088
65.819348 117.116 -166.1556
66.296302 117.119 -166.4005
66.776713 117.121 -166.6446
67.260604 117.124 -166.8894
67.748002 117.126 -167.1356
68.238932 117.129 -167.3837
68.733420 117.131 -167.6333
69.231490 117.133 -167.8840
69.733170 117.135 -168.1353
70.238485 117.137 -168.3860
70.747463 117.139 -168.6353
71.260128 117.141 -168.8821
71.776508 117.142 -169.1261
72.296630 117.144 -169.3673
72.820521 117.145 -169.6066
73.348209 117.146 -169.8449
73.879720 117.147 -170.0831
74.415083 117.148 -170.3213
74.954326 117.148 -170.5592
75.497475 117.149 -170.7964
76.044561 117.149 -171.0325
76.595612 117.149 -171.2675
77.150655 117.149 -171.5018
77.709720 117.148 -171.7357
78.272837 117.147 -171.9695
78.840034 117.146 -172.2030
79.411342 117.145 -172.4364
79.986789 117.144 -172.6698
80.566406 117.143 -172.9032
81.150224 117.141 -173.1370
81.738272 117.140 -173.3710
82.330581 117.138 -173.6053
82.927182 117.136 -173.8397
83.528107 117.134 -174.0742
84.133386 117.131 -174.3084
84.743051 117.129 -174.5420
85.357134 117.126 -174.7746
85.975667 117.123 -175.0058
86.598682 117.119 -175.2347
87.226212 117.116 -175.4606
87.858289 117.113 -175.6836
88.494946 117.111 -175.9041
89.136217 117.108 -176.1234
89.782135 117.105 -176.3424
90.432733 117.102 -176.5619
91.088046 117.098 -176.7821
91.748108 117.094 -177.0029
92.412952 117.090 -177.2238
93.082615 117.086 -177.4445
93.757130 117.082 -177.6649
94.436533 117.077 -177.8851
95.120859 117.073 -178.1049
95.810144 117.069 -178.3243
96.504423 117.065 -178.5430
97.203734 117.061 -178.7608
97.908112 117.057 -178.9780
98.617595 117.053 -179.1948
99.332219 117.048 -179.4117
100.052021 117.043 -179.6290
100.777039 117.038 -179.8471
101.507311 117.032 179.9335
102.242875 117.027 179.7131
102.983769 117.021 179.4919
103.730032 117.015 179.2705
104.481702 117.009 179.0496
105.238820 117.003 178.8297
106.001424 116.996 178.6106
106.769554 116.989 178.3923
107.543250 116.982 178.1745
108.322553 116.974 177.9572
109.107503 116.967 177.7402
109.898141 116.959 177.5239
110.694508 116.951 177.3081
111.496646 116.943 177.0926
112.304596 116.935 176.8772
113.118402 116.926 176.6619
113.938104 116.918 176.4467
114.763747 116.909 176.2313
115.595372 116.900 176.0156
116.433024 116.891 175.7995
117.276746 116.881 175.5839
118.126581 116.872 175.3699
118.982575 116.862 175.1580
119.844772 116.851 174.9479
120.713217 116.840 174.7386
121.587954 116.829 174.5292
122.469031 116.817 174.3188
123.356492 116.806 174.1071
124.250384 116.794 173.8945
125.150753 116.782 173.6818
126.057647 116.770 173.4696
126.971113 116.757 173.2582
127.891198 116.745 173.0474
128.817950 116.732 172.8369
129.751418 116.718 172.6267
130.691651 116.705 172.4177
131.638696 116.692 172.2105
132.592604 116.679 172.0050
133.553425 116.665 171.8005
134.521208 116.650 171.5970
135.496004 116.633 171.3953
136.477864 116.617 171.1962
137.466839 116.599 171.0002
138.462981 116.581 170.8071
139.466340 116.563 170.6165
140.476971 116.543 170.4283
141.494925 116.523 170.2433
142.520256 116.503 170.0626
143.553016 116.481 169.8880
144.593260 116.459 169.7211
145.641043 116.436 169.5633
146.696418 116.413 169.4155
147.759441 116.389 169.2786
148.830166 116.366 169.1536
149.908651 116.343 169.0421
150.994951 116.322 168.9454
152.089123 116.302 168.8640
153.191223 116.283 168.7968
154.301310 116.268 168.7407
155.419441 116.255 168.6918
156.545674 116.246 168.6451
157.680069 116.240 168.5949
158.822683 116.237 168.5352
159.973578 116.237 168.4606
161.132813 116.240 168.3668
162.300447 116.244 168.2509
163.476543 116.248 168.1121
164.661162 116.252 167.9514
165.854364 116.255 167.7711
167.056213 116.257 167.5747
168.266772 116.257 167.3661
169.486102 116.255 167.1486
170.714268 116.251 166.9251
171.951334 116.246 166.6982
173.197364 116.239 166.4701
174.452424 116.230 166.2427
175.716578 116.219 166.0170
176.989893 116.208 165.7938
178.272434 116.195 165.5733
179.564270 116.181 165.3557
180.865467 116.167 165.1409
182.176092 116.152 164.9290
183.496216 116.136 164.7202
184.825905 116.120 164.5140
186.165229 116.103 164.3104
187.514259 116.086 164.1091
188.873065 116.069 163.9100
190.241717 116.051 163.7136
191.620287 116.033 163.5202
193.008847 116.015 163.3299
194.407468 115.996 163.1425
195.816225 115.978 162.9572
197.235190 115.959 162.7738
198.664438 115.939 162.5921
200.104042 115.920 162.4122
201.554078 115.900 162.2339
203.014622 115.881 162.0569
204.485750 115.861 161.8810
205.967538 115.841 161.7062
207.460064 115.821 161.5326
208.963405 115.800 161.3606
210.477640 115.780 161.1904
212.002848 115.759 161.0221
213.539108 115.738 160.8554
215.086500 115.717 160.6902
216.645105 115.696 160.5262
218.215005 115.675 160.3634
219.796281 115.653 160.2015
221.389015 115.632 160.0410
222.993292 115.610 159.8826
224.609193 115.589 159.7276
226.236804 115.567 159.5764
227.876209 115.545 159.4281
229.527494 115.524 159.2819
231.190745 115.501 159.1369
232.866048 115.479 158.9929
234.553491 115.457 158.8500
236.253163 115.434 158.7087
237.965150 115.411 158.5693
239.689544 115.389 158.4319
241.426433 115.366 158.2968
243.175909 115.344 158.1637
244.938062 115.322 158.0326
246.712984 115.300 157.9033
248.500768 115.278 157.7758
250.301507 115.257 157.6497
252.115295 115.235 157.5246
253.942226 115.214 157.3997
255.782396 115.193 157.2742
257.635901 115.172 157.1479
259.502837 115.152 157.0206
261.383301 115.131 156.8923
263.277392 115.110 156.7632
265.185209 115.090 156.6335
267.106850 115.069 156.5031
269.042417 115.048 156.3723
270.992009 115.027 156.2408
272.955729 115.006 156.1089
274.933678 114.984 155.9769
276.925961 114.962 155.8452
278.932681 114.940 155.7143
280.953942 114.918 155.5847
282.989850 114.895 155.4570
285.040511 114.872 155.3316
287.106032 114.849 155.2086
289.186521 114.827 155.0876
291.282086 114.804 154.9679
293.392836 114.781 154.8490
295.518881 114.759 154.7307
297.660333 114.736 154.6132
299.817302 114.713 154.4970
301.989902 114.690 154.3821
304.178245 114.667 154.2686
306.382446 114.644 154.1564
308.602620 114.621 154.0457
310.838882 114.598 153.9364
313.091348 114.575 153.8286
315.360137 114.552 153.7219
317.645367 114.529 153.6163
319.947156 114.506 153.5117
322.265625 114.483 153.4081
324.600895 114.460 153.3055
326.953086 114.436 153.2036
329.322323 114.413 153.1024
331.708729 114.390 153.0018
334.112427 114.367 152.9022
336.533543 114.344 152.8037
338.972204 114.321 152.7067
341.428536 114.299 152.6112
343.902668 114.276 152.5172
346.394729 114.253 152.4245
348.904848 114.231 152.3327
351.433156 114.208 152.2414
353.979786 114.186 152.1508
356.544869 114.163 152.0611
359.128540 114.141 151.9725
361.730934 114.118 151.8848
364.352185 114.095 151.7980
366.992431 114.073 151.7121
369.651810 114.050 151.6273
372.330459 114.028 151.5436
375.028519 114.006 151.4611
377.746130 113.983 151.3795
380.483434 113.961 151.2986
383.240574 113.940 151.2185
386.017693 113.918 151.1393
388.814937 113.896 151.0608
391.632450 113.875 150.9831
394.470380 113.853 150.9061
397.328875 113.832 150.8301
400.208084 113.810 150.7551
403.108157 113.789 150.6808
406.029245 113.768 150.6074
408.971500 113.747 150.5347
411.935076 113.726 150.4629
414.920127 113.705 150.3919
417.926810 113.684 150.3216
420.955280 113.664 150.2519
424.005695 113.643 150.1829
427.078215 113.622 150.1147
430.173000 113.602 150.0474
433.290211 113.581 149.9809
436.430010 113.561 149.9152
439.592562 113.541 149.8501
442.778031 113.521 149.7856
445.986583 113.501 149.7219
449.218386 113.481 149.6593
452.473607 113.461 149.5981
455.752418 113.442 149.5381
459.054987 113.422 149.4792
462.381489 113.403 149.4211
465.732096 113.384 149.3637
469.106983 113.365 149.3073
472.506325 113.346 149.2516
475.930301 113.328 149.1969
479.379088 113.309 149.1428
482.852867 113.291 149.0893
486.351817 113.273 149.0362
489.876123 113.255 148.9837
493.425968 113.237 148.9319
497.001536 113.220 148.8809
500.603014 113.202 148.8307
504.230589 113.185 148.7814
507.884452 113.168 148.7328
511.564792 113.151 148.6851
515.271802 113.135 148.6382
519.005673 113.118 148.5922
522.766602 113.102 148.5471
526.554785 113.086 148.5027
530.370418 113.070 148.4590
534.213700 113.055 148.4158
538.084833 113.039 148.3731
541.984018 113.024 148.3307
545.911457 113.009 148.2889
549.867357 112.995 148.2480
553.851922 112.980 148.2083
557.865362 112.966 148.1696
561.907884 112.953 148.1314
565.979700 112.939 148.0934
570.081022 112.926 148.0560
574.212064 112.913 148.0194
578.373042 112.900 147.9841
582.564171 112.887 147.9501
586.785671 112.875 147.9172
591.037762 112.863 147.8849
595.320665 112.851 147.8527
599.634604 112.840 147.8207
603.979804 112.829 147.7893
608.356491 112.818 147.7588
612.764893 112.807 147.7292
617.205240 112.797 147.7001
621.677763 112.788 147.6713
626.182696 112.779 147.6426
630.720274 112.770 147.6143
635.290733 112.761 147.5866
639.894312 112.753 147.5597
644.531250 112.745 147.5337
649.201789 112.737 147.5089
653.906173 112.730 147.4858
658.644647 112.723 147.4643
663.417457 112.716 147.4441
668.224854 112.710 147.4243
673.067086 112.705 147.4041
677.944408 112.700 147.3831
682.857073 112.695 147.3613
687.805336 112.692 147.3395
692.789457 112.689 147.3181
697.809695 112.686 147.2971
702.866312 112.685 147.2759
707.959571 112.683 147.2545
713.089738 112.682 147.2330
718.257080 112.682 147.2112
723.461867 112.683 147.1890
728.704370 112.684 147.1655
733.984862 112.686 147.1399
739.303619 112.688 147.1122
744.660918 112.690 147.0833
750.057038 112.693 147.0550
755.492260 112.695 147.0292
760.966869 112.697 147.0083
766.481148 112.700 146.9936
772.035387 112.704 146.9854
777.629873 112.708 146.9828
783.264900 112.714 146.9838
788.940760 112.721 146.9856
794.657750 112.729 146.9858
800.416168 112.740 146.9831
806.216313 112.752 146.9769
812.058489 112.766 146.9668
817.943000 112.781 146.9518
823.870152 112.798 146.9311
829.840255 112.816 146.9038
835.853619 112.835 146.8697
841.910559 112.856 146.8289
848.011390 112.877 146.7818
854.156430 112.899 146.7287
860.346000 112.922 146.6696
866.580422 112.946 146.6042
872.860020 112.970 146.5315
879.185124 112.995 146.4501
885.556062 113.020 146.3586
891.973166 113.045 146.2558
898.436771 113.071 146.1407
904.947215 113.096 146.0129
911.504835 113.122 145.8716
918.109975 113.146 145.7162
924.762978 113.170 145.5464
931.464192 113.192 145.3619
938.213966 113.213 145.1633
945.012651 113.230 144.9514
951.860602 113.244 144.7289
958.758176 113.254 144.4994
965.705733 113.258 144.2685
972.703635 113.257 144.0440
979.752246 113.249 143.8360
986.851935 113.235 143.6577
994.003071 113.214 143.5245
1001.206027 113.188 143.4543
1008.461179 113.158 143.4651
1015.768904 113.126 143.5732
1023.129584 113.098 143.7903
1030.543603 113.078 144.1202
1038.011347 113.069 144.5560
1045.533205 113.078 145.0785
1053.109569 113.107 145.6576
1060.740836 113.159 146.2556
1068.427401 113.233 146.8328
1076.169666 113.328 147.3530
1083.968035 113.439 147.7882
1091.822915 113.564 148.1207
1099.734713 113.698 148.3432
1107.703844 113.836 148.4565
1115.730723 113.977 148.4677
1123.815768 114.117 148.3867
1131.959400 114.255 148.2254
1140.162045 114.391 147.9953
1148.424129 114.522 147.7072
1156.746083 114.649 147.3704
1165.128342 114.772 146.9931
1173.571343 114.891 146.5820
1182.075524 115.007 146.1426
1190.641331 115.119 145.6792
1199.269209 115.228 145.1952
1207.959608 115.334 144.6932
1216.712981 115.437 144.1752
1225.529785 115.538 143.6427
1234.410479 115.638 143.0971
1243.355526 115.735 142.5395
1252.365393 115.830 141.9706
1261.440549 115.924 141.3914
1270.581467 116.017 140.8021
1279.788624 116.108 140.2030
1289.062500 116.199 139.5944
1298.403578 116.288 138.9764
1307.812346 116.377 138.3491
1317.289293 116.464 137.7125
1326.834914 116.552 137.0668
1336.449707 116.638 136.4119
1346.134173 116.725 135.7477
1355.888816 116.811 135.0744
1365.714145 116.896 134.3918
1375.610673 116.981 133.7001
1385.578915 117.066 132.9991
1395.619391 117.152 132.2885
1405.732624 117.237 131.5682
1415.919142 117.322 130.8375
1426.179476 117.407 130.0959
1436.514160 117.492 129.3431
1446.923734 117.578 128.5784
1457.408740 117.664 127.8016
1467.969724 117.750 127.0120
1478.607238 117.836 126.2093
1489.321836 117.923 125.3929
1500.114076 118.010 124.5623
1510.984521 118.097 123.7169
1521.933737 118.185 122.8557
1532.962297 118.273 121.9782
1544.070773 118.361 121.0835
1555.259747 118.450 120.1708
1566.529800 118.539 119.2393
1577.881521 118.628 118.2884
1589.315501 118.718 117.3170
1600.832336 118.807 116.3246
1612.432627 118.896 115.3103
1624.116978 118.985 114.2735
1635.886000 119.074 113.2131
1647.740304 119.163 112.1284
1659.680509 119.251 111.0186
1671.707238 119.338 109.8832
1683.821118 119.424 108.7218
1696.022780 119.509 107.5342
1708.312860 119.592 106.3203
1720.692000 119.673 105.0802
1733.160843 119.753 103.8144
1745.720041 119.830 102.5236
1758.370248 119.905 101.2088
1771.112124 119.977 99.8716
1783.946332 120.046 98.5138
1796.873543 120.112 97.1372
1809.894429 120.175 95.7440
1823.009670 120.236 94.3358
1836.219950 120.294 92.9142
1849.525956 120.350 91.4799
1862.928384 120.404 90.0325
1876.427931 120.456 88.5705
1890.025301 120.507 87.0909
1903.721204 120.557 85.5904
1917.516352 120.605 84.0647
1931.411466 120.651 82.5103
1945.407270 120.694 80.9243
1959.504493 120.734 79.3056
1973.703870 120.769 77.6551
1988.006142 120.799 75.9754
2002.412054 120.822 74.2709
2016.922357 120.838 72.5471
2031.537808 120.847 70.8104
2046.259169 120.849 69.0667
2061.087206 120.844 67.3220
2076.022694 120.832 65.5812
2091.066410 120.813 63.8488
2106.219139 120.789 62.1282
2121.481671 120.759 60.4220
2136.854802 120.724 58.7324
2152.339333 120.684 57.0606
2167.936071 120.641 55.4078
2183.645829 120.593 53.7744
2199.469427 120.542 52.1608
2215.407689 120.489 50.5671
2231.461446 120.432 48.9935
2247.631536 120.374 47.4397
2263.918800 120.313 45.9057
2280.324089 120.250 44.3911
2296.848258 120.186 42.8957
2313.492167 120.120 41.4192
2330.256685 120.053 39.9611
2347.142685 119.986 38.5210
2364.151049 119.917 37.0985
2381.282662 119.848 35.6931
2398.538418 119.778 34.3043
2415.919216 119.708 32.9313
2433.425962 119.638 31.5738
2451.059570 119.569 30.2308
2468.820958 119.499 28.9017
2486.711052 119.429 27.5859
2504.730786 119.360 26.2825
2522.881098 119.292 24.9909
2541.162934 119.224 23.7106
2559.577248 119.156 22.4407
2578.125000 119.090 21.1807
2596.807157 119.024 19.9297
2615.624692 118.959 18.6870
2634.578586 118.895 17.4518
2653.669829 118.832 16.2231
2672.899414 118.770 15.0002
2692.268345 118.709 13.7823
2711.777632 118.650 12.5685
2731.428290 118.591 11.3582
2751.221345 118.533 10.1508
2771.157829 118.475 8.9461
2791.238781 118.419 7.7443
2811.465248 118.363 6.5456
2831.838284 118.307 5.3512
2852.358952 118.252 4.1624
2873.028321 118.198 2.9810
2893.847468 118.144 1.8091
2914.817480 118.091 0.6484
2935.939449 118.039 -0.4993
2957.214476 117.989 -1.6331
2978.643672 117.941 -2.7529
3000.228152 117.896 -3.8597
3021.969041 117.854 -4.9554
3043.867475 117.816 -6.0427
3065.924593 117.783 -7.1246
3088.141547 117.754 -8.2045
3110.519493 117.731 -9.2861
3133.059600 117.712 -10.3730
3155.763041 117.698 -11.4691
3178.631001 117.689 -12.5780
3201.664672 117.684 -13.7031
3224.865254 117.684 -14.8477
3248.233957 117.689 -16.0144
3271.771999 117.698 -17.2057
3295.480608 117.710 -18.4236
3319.361019 117.726 -19.6694
3343.414477 117.745 -20.9444
3367.642236 117.767 -22.2495
3392.045560 117.791 -23.5856
3416.625721 117.818 -24.9536
3441.383999 117.847 -26.3540
3466.321686 117.878 -27.7878
3491.440082 117.911 -29.2557
3516.740496 117.946 -30.7584
3542.224247 117.982 -32.2969
3567.892664 118.019 -33.8717
3593.747085 118.057 -35.4836
3619.788858 118.096 -37.1334
3646.019340 118.135 -38.8218
3672.439900 118.175 -40.5494
3699.051913 118.215 -42.3171
3725.856768 118.254 -44.1257
3752.855862 118.294 -45.9757
3780.050603 118.332 -47.8677
3807.442408 118.369 -49.8023
3835.032705 118.404 -51.7795
3862.822933 118.438 -53.7995
3890.814540 118.468 -55.8617
3919.008986 118.496 -57.9654
3947.407741 118.521 -60.1095
3976.012284 118.542 -62.2926
4004.824108 118.558 -64.5129
4033.844715 118.570 -66.7681
4063.075616 118.577 -69.0555
4092.518337 118.579 -71.3722
4122.174412 118.575 -73.7148
4152.045387 118.566 -76.0796
4182.132820 118.551 -78.4630
4212.438278 118.530 -80.8610
4242.963342 118.503 -83.2701
4273.709604 118.471 -85.6866
4304.678665 118.434 -88.1071
4335.872141 118.392 -90.5287
4367.291658 118.346 -92.9490
4398.938854 118.297 -95.3666
4430.815378 118.244 -97.7808
4462.922893 118.188 -100.1920
4495.263072 118.131 -102.6016
4527.837601 118.071 -105.0112
4560.648179 118.011 -107.4235
4593.696515 117.949 -109.8409
4626.984334 117.887 -112.2662
4660.513370 117.823 -114.7019
4694.285371 117.759 -117.1503
4728.302098 117.693 -119.6134
4762.565324 117.627 -122.0931
4797.076835 117.559 -124.5916
4831.838432 117.489 -127.1107
4866.851925 117.418 -129.6527
4902.119140 117.345 -132.2197
4937.641916 117.269 -134.8140
4973.422105 117.190 -137.4370
5009.461572 117.107 -140.0899
5045.762195 117.019 -142.7726
5082.325868 116.926 -145.4839
5119.154496 116.827 -148.2214
5156.250000 116.720 -150.9814
5193.614313 116.606 -153.7588
5231.249383 116.483 -156.5476
5269.157173 116.351 -159.3409
5307.339658 116.209 -162.1311
5345.798829 116.058 -164.9102
5384.536691 115.898 -167.6700
5423.555263 115.728 -170.4025
5462.856580 115.550 -173.1000
5502.442691 115.363 -175.7549
5542.315659 115.169 -178.3610
5582.477563 114.968 179.0878
5622.930497 114.762 176.5965
5663.676569 114.551 174.1688
5704.717904 114.336 171.8077
5746.056642 114.119 169.5150
5787.694937 113.901 167.2919
5829.634960 113.683 165.1385
5871.878898 113.465 163.0545
5914.428953 113.249 161.0388
5957.287343 113.036 159.0898
6000.456303 112.826 157.2059
6043.938083 112.620 155.3847
6087.734950 112.420 153.6243
6131.849187 112.225 151.9222
6176.283094 112.036 150.2760
6221.038987 111.854 148.6831
6266.119200 111.681 147.1408
6311.526083 111.516 145.6467
6357.262002 111.360 144.1981
6403.329344 111.214 142.7923
6449.730508 111.079 141.4266
6496.467914 110.954 140.0977
6543.543998 110.841 138.8026
6590.961215 110.740 137.5377
6638.722037 110.652 136.2998
6686.828954 110.577 135.0854
6735.284473 110.516 133.8915
6784.091120 110.469 132.7148
6833.251441 110.437 131.5519
6882.767998 110.422 130.3996
6932.643372 110.422 129.2540
6982.880164 110.441 128.1110
7033.480992 110.478 126.9654
7084.448495 110.534 125.8105
7135.785329 110.610 124.6390
7187.494171 110.707 123.4429
7239.577717 110.827 122.2142
7292.038681 110.968 120.9457
7344.879799 111.133 119.6302
7398.103826 111.323 118.2601
7451.713536 111.539 116.8267
7505.711724 111.783 115.3192
7560.101205 112.056 113.7256
7614.884815 112.362 112.0319
7670.065409 112.703 110.2213
7725.645865 113.083 108.2698
7781.629080 113.505 106.1415
7838.017972 113.973 103.7844
7894.815481 114.487 101.1330
7952.024569 115.047 98.1124
8009.648217 115.647 94.6425
8067.689429 116.281 90.6397
8126.151233 116.936 86.0213
8185.036674 117.596 80.7127
8244.348824 118.240 74.6568
8304.090774 118.844 67.8257
8364.265639 119.377 60.2327
8424.876556 119.813 51.9428
8485.926684 120.123 43.0797
8547.419207 120.287 33.8254
8609.357330 120.292 24.4092
8671.744282 120.136 15.0829
8734.583316 119.833 6.0841
8797.877707 119.408 -2.4029
8861.630756 118.894 -10.2784
8925.845785 118.323 -17.5361
8990.526143 117.725 -24.2383
9055.675202 117.113 -30.4637
9121.296357 116.493 -36.2612
9187.393031 115.865 -41.6340
9253.968668 115.231 -46.5572
9321.026740 114.597 -51.0069
9388.570742 113.973 -54.9810
9456.604196 113.371 -58.5047
9525.130648 112.800 -61.6257
9594.153671 112.270 -64.4030
9663.676863 111.786 -66.8977
9733.703850 111.352 -69.1669
9804.238280 110.969 -71.2610
9875.283832 110.638 -73.2227
9946.844210 110.360 -75.0873
10018.923143 110.134 -76.8851
10091.524390 109.962 -78.6420
10164.651736 109.844 -80.3815
10238.308993 109.782 -82.1267
10312.500000 109.779 -83.9020
10387.228626 109.839 -85.7357
10462.498767 109.966 -87.6635
10538.314345 110.168 -89.7319
10614.679315 110.451 -92.0038
10691.597657 110.822 -94.5632
10769.073381 111.286 -97.5195
10847.110526 111.843 -101.0090
10925.713161 112.488 -105.1902
11004.885382 113.204 -110.2322
11084.631318 113.965 -116.2964
11164.955126 114.735 -123.5145
11245.860993 115.467 -131.9658
11327.353138 116.111 -141.6570
11409.435808 116.614 -152.4993
11492.113283 116.925 -164.2898
11575.389873 117.004 -176.7078
11659.269920 116.831 170.6547
11743.757796 116.405 158.2286
11828.857906 115.750 146.3933
11914.574686 114.899 135.4316
12000.912606 113.896 125.5206
12087.876166 112.785 116.7441
12175.469900 111.609 109.1082
12263.698373 110.408 102.5581
12352.566187 109.218 96.9949
12442.077974 108.065 92.2903
12532.238400 106.974 88.3032
12623.052165 105.958 84.8926
12714.524005 105.026 81.9290
12806.658687 104.180 79.3003
12899.461015 103.417 76.9154
12992.935827 102.734 74.7036
13087.087996 102.126 72.6108
13181.922430 101.587 70.5967
13277.444074 101.112 68.6304
13373.657907 100.698 66.6880
13470.568945 100.343 64.7502
13568.182241 100.044 62.8008
13666.502883 99.802 60.8223
13765.535996 99.617 58.7961
13865.286744 99.489 56.6980
13965.760328 99.423 54.4968
14066.961984 99.418 52.1519
14168.896989 99.479 49.6082
14271.570658 99.605 46.7937
14374.988342 99.797 43.6162
14479.155433 100.047 39.9666
14584.077362 100.344 35.7318
14689.759598 100.670 30.8151
14796.207652 101.000 25.1631
14903.427072 101.305 18.7899
15011.423448 101.560 11.7916
15120.202410 101.747 4.3417
15229.769630 101.866 -3.3488
15340.130819 101.933 -11.1024
15451.291730 101.976 -18.8586
15563.258160 102.021 -26.7081
15676.035944 102.072 -34.8389
15789.630962 102.111 -43.4204
15904.049137 102.101 -52.5028
16019.296433 102.005 -61.9818
16135.378859 101.794 -71.6271
16252.302465 101.461 -81.1404
16370.073348 101.019 -90.2239
16488.697648 100.499 -98.6449
16608.181548 99.953 -106.2931
16728.531278 99.438 -113.2257
16849.753112 99.012 -119.6869
16971.853368 98.719 -126.0735
17094.838414 98.571 -132.8391
17218.714660 98.548 -140.3767
17343.488565 98.608 -148.9443
17469.166632 98.694 -158.6559
17595.755415 98.748 -169.5055
17723.261512 98.713 178.6176
17851.691571 98.536 165.9268
17981.052287 98.178 152.7321
18111.350404 97.613 139.4148
18242.592715 96.836 126.3750
18374.786062 95.860 113.9690
18507.937336 94.715 102.4493
18642.053479 93.438 91.9407
18777.141484 92.066 82.4617
18913.208391 90.629 73.9950
19050.261296 89.148 66.5731
19188.307342 87.640 60.3158
19327.353727 86.127 55.3805
19467.407699 84.643 51.8259
19608.476560 83.247 49.4054
19750.567664 82.026 47.3501
19893.688419 81.099 44.3455
20037.846286 80.591 38.9126
