* Measurement data measured by REW V5.20.9
* Source: Головной телефон (TX 384Khz HiFi Audio), MICROPHONE (Общая громкость), L, volume: 0,250. Timing signal peak level -25,7 dBFS, measurement signal peak level -25,7 dBFS
* Format: 256k Log Swept Sine, 1 sweep at -12,0 dBFS using an acoustic timing reference
* Dated: 25.09.2022 17:39:01
* REW Settings:
*  C-weighting compensation: Off
*  Target level: 75.0 dB
* Note: Delay -0,0281 ms (-9,7 mm, -0,38 in) using estimated IR delay relative to Acoustic reference on  L with no timing offset
* Measurement: Celest Gumiho
* Smoothing: 1/12 octave
* Frequency Step: 96 ppo
* Start Frequency: 20.141602 Hz
*
* Freq(Hz) SPL(dB) Phase(degrees)
20.141602 122.793 -144.5839
20.287556 122.795 -144.7261
20.434568 122.798 -144.9335
20.582645 122.802 -145.1837
20.731796 122.807 -145.4575
20.882027 122.811 -145.7419
21.033346 122.816 -146.0289
21.185763 122.822 -146.3148
21.339284 122.829 -146.5992
21.493917 122.837 -146.8830
21.649671 122.846 -147.1683
21.806553 122.857 -147.4572
21.964572 122.868 -147.7516
22.123737 122.879 -148.0526
22.284054 122.890 -148.3605
22.445534 122.900 -148.6745
22.608183 122.910 -148.9931
22.772012 122.919 -149.3144
22.937027 122.926 -149.6358
23.103238 122.933 -149.9551
23.270654 122.939 -150.2705
23.439282 122.945 -150.5807
23.609133 122.951 -150.8855
23.780215 122.957 -151.1852
23.952536 122.964 -151.4811
24.126106 122.972 -151.7749
24.300934 122.981 -152.0681
24.477028 122.990 -152.3624
24.654399 123.000 -152.6586
24.833055 123.009 -152.9571
25.013005 123.018 -153.2571
25.194260 123.026 -153.5577
25.376828 123.034 -153.8572
25.560719 123.040 -154.1541
25.745942 123.044 -154.4470
25.932508 123.048 -154.7351
26.120426 123.051 -155.0183
26.309705 123.054 -155.2973
26.500356 123.056 -155.5732
26.692388 123.058 -155.8475
26.885812 123.059 -156.1219
27.080638 123.061 -156.3975
27.276876 123.062 -156.6751
27.474535 123.064 -156.9549
27.673627 123.065 -157.2365
27.874161 123.066 -157.5190
28.076149 123.068 -157.8015
28.279600 123.070 -158.0829
28.484526 123.072 -158.3625
28.690937 123.075 -158.6397
28.898843 123.078 -158.9145
29.108256 123.082 -159.1868
29.319186 123.086 -159.4567
29.531645 123.091 -159.7244
29.745644 123.096 -159.9898
29.961193 123.100 -160.2527
30.178304 123.104 -160.5129
30.396989 123.107 -160.7703
30.617258 123.110 -161.0251
30.839123 123.112 -161.2775
31.062596 123.114 -161.5283
31.287688 123.116 -161.7784
31.514412 123.117 -162.0289
31.742778 123.118 -162.2807
31.972800 123.119 -162.5348
32.204488 123.120 -162.7915
32.437855 123.120 -163.0507
32.672913 123.121 -163.3119
32.909674 123.121 -163.5742
33.148151 123.121 -163.8364
33.388356 123.121 -164.0974
33.630302 123.121 -164.3559
33.874001 123.121 -164.6114
34.119466 123.120 -164.8632
34.366710 123.120 -165.1112
34.615745 123.119 -165.3557
34.866585 123.118 -165.5970
35.119243 123.117 -165.8354
35.373731 123.115 -166.0715
35.630064 123.113 -166.3059
35.888254 123.111 -166.5391
36.148315 123.109 -166.7724
36.410261 123.107 -167.0067
36.674104 123.105 -167.2434
36.939860 123.104 -167.4836
37.207542 123.103 -167.7279
37.477163 123.103 -167.9760
37.748738 123.102 -168.2269
38.022281 123.101 -168.4787
38.297806 123.100 -168.7291
38.575327 123.099 -168.9761
38.854860 123.097 -169.2181
39.136419 123.095 -169.4546
39.420017 123.093 -169.6860
39.705671 123.091 -169.9135
39.993395 123.089 -170.1387
40.283203 123.086 -170.3629
40.575112 123.083 -170.5872
40.869136 123.080 -170.8119
41.165290 123.076 -171.0370
41.463591 123.072 -171.2622
41.764053 123.068 -171.4874
42.066693 123.064 -171.7124
42.371525 123.060 -171.9375
42.678567 123.056 -172.1629
42.987834 123.051 -172.3888
43.299341 123.047 -172.6152
43.613106 123.042 -172.8422
43.929145 123.038 -173.0697
44.247473 123.033 -173.2978
44.568109 123.029 -173.5263
44.891068 123.024 -173.7549
45.216367 123.018 -173.9832
45.544023 123.013 -174.2105
45.874054 123.007 -174.4362
46.206476 123.001 -174.6601
46.541307 122.994 -174.8829
46.878565 122.987 -175.1057
47.218266 122.980 -175.3297
47.560429 122.972 -175.5555
47.905072 122.964 -175.7823
48.252212 122.956 -176.0085
48.601867 122.948 -176.2315
48.954056 122.940 -176.4494
49.308798 122.932 -176.6613
49.666109 122.925 -176.8676
50.026010 122.919 -177.0697
50.388520 122.914 -177.2693
50.753656 122.909 -177.4681
51.121437 122.903 -177.6674
51.491884 122.898 -177.8683
51.865016 122.891 -178.0715
52.240851 122.883 -178.2775
52.619410 122.875 -178.4861
53.000712 122.866 -178.6962
53.384777 122.857 -178.9071
53.771625 122.848 -179.1177
54.161276 122.838 -179.3281
54.553751 122.829 -179.5383
54.949070 122.820 -179.7477
55.347254 122.810 -179.9550
55.748323 122.800 179.8418
56.152298 122.789 179.6444
56.559201 122.778 179.4531
56.969052 122.768 179.2665
57.381873 122.758 179.0815
57.797686 122.749 178.8952
58.216512 122.740 178.7056
58.638373 122.731 178.5120
59.063291 122.721 178.3152
59.491288 122.712 178.1164
59.922386 122.701 177.9169
60.356608 122.690 177.7181
60.793977 122.679 177.5211
61.234515 122.666 177.3266
61.678246 122.654 177.1347
62.125192 122.642 176.9449
62.575377 122.630 176.7561
63.028824 122.617 176.5674
63.485557 122.606 176.3782
63.945599 122.594 176.1884
64.408975 122.581 175.9984
64.875709 122.569 175.8089
65.345825 122.557 175.6203
65.819348 122.544 175.4330
66.296302 122.531 175.2466
66.776713 122.518 175.0609
67.260604 122.505 174.8751
67.748002 122.492 174.6885
68.238932 122.478 174.5009
68.733420 122.464 174.3123
69.231490 122.450 174.1233
69.733170 122.435 173.9348
70.238485 122.421 173.7477
70.747463 122.405 173.5629
71.260128 122.390 173.3805
71.776508 122.374 173.2001
72.296630 122.358 173.0214
72.820521 122.343 172.8437
73.348209 122.327 172.6667
73.879720 122.311 172.4905
74.415083 122.295 172.3152
74.954326 122.278 172.1413
75.497475 122.262 171.9688
76.044561 122.244 171.7969
76.595612 122.227 171.6249
77.150655 122.210 171.4517
77.709720 122.192 171.2775
78.272837 122.175 171.1031
78.840034 122.157 170.9301
79.411342 122.140 170.7597
79.986789 122.123 170.5922
80.566406 122.105 170.4266
81.150224 122.088 170.2617
81.738272 122.070 170.0964
82.330581 122.052 169.9313
82.927182 122.034 169.7674
83.528107 122.016 169.6063
84.133386 121.998 169.4485
84.743051 121.979 169.2939
85.357134 121.959 169.1409
85.975667 121.939 168.9878
86.598682 121.918 168.8331
87.226212 121.896 168.6757
87.858289 121.874 168.5156
88.494946 121.852 168.3541
89.136217 121.830 168.1930
89.782135 121.808 168.0334
90.432733 121.786 167.8760
91.088046 121.765 167.7206
91.748108 121.744 167.5671
92.412952 121.722 167.4156
93.082615 121.701 167.2664
93.757130 121.679 167.1194
94.436533 121.657 166.9741
95.120859 121.634 166.8300
95.810144 121.611 166.6868
96.504423 121.588 166.5444
97.203734 121.565 166.4027
97.908112 121.542 166.2617
98.617595 121.518 166.1211
99.332219 121.495 165.9808
100.052021 121.471 165.8409
100.777039 121.448 165.7015
101.507311 121.424 165.5628
102.242875 121.399 165.4249
102.983769 121.375 165.2879
103.730032 121.350 165.1516
104.481702 121.324 165.0159
105.238820 121.299 164.8806
106.001424 121.273 164.7455
106.769554 121.246 164.6111
107.543250 121.220 164.4781
108.322553 121.193 164.3471
109.107503 121.166 164.2184
109.898141 121.139 164.0923
110.694508 121.111 163.9691
111.496646 121.084 163.8485
112.304596 121.056 163.7299
113.118402 121.028 163.6123
113.938104 121.000 163.4946
114.763747 120.972 163.3760
115.595372 120.944 163.2570
116.433024 120.916 163.1385
117.276746 120.887 163.0220
118.126581 120.858 162.9078
118.982575 120.829 162.7954
119.844772 120.800 162.6838
120.713217 120.770 162.5728
121.587954 120.740 162.4623
122.469031 120.709 162.3525
123.356492 120.679 162.2433
124.250384 120.648 162.1347
125.150753 120.617 162.0270
126.057647 120.586 161.9204
126.971113 120.554 161.8157
127.891198 120.522 161.7137
128.817950 120.489 161.6148
129.751418 120.455 161.5188
130.691651 120.421 161.4245
131.638696 120.386 161.3305
132.592604 120.351 161.2362
133.553425 120.315 161.1415
134.521208 120.279 161.0473
135.496004 120.242 160.9545
136.477864 120.205 160.8641
137.466839 120.167 160.7766
138.462981 120.128 160.6922
139.466340 120.088 160.6111
140.476971 120.047 160.5339
141.494925 120.005 160.4611
142.520256 119.963 160.3937
143.553016 119.919 160.3327
144.593260 119.875 160.2791
145.641043 119.829 160.2340
146.696418 119.782 160.1980
147.759441 119.734 160.1718
148.830166 119.685 160.1561
149.908651 119.635 160.1523
150.994951 119.585 160.1622
152.089123 119.533 160.1879
153.191223 119.481 160.2321
154.301310 119.428 160.2973
155.419441 119.376 160.3857
156.545674 119.324 160.4991
157.680069 119.273 160.6385
158.822683 119.224 160.8055
159.973578 119.178 161.0004
161.132813 119.135 161.2222
162.300447 119.096 161.4683
163.476543 119.062 161.7350
164.661162 119.034 162.0171
165.854364 119.012 162.3077
167.056213 118.998 162.5975
168.266772 118.990 162.8761
169.486102 118.990 163.1321
170.714268 118.995 163.3549
171.951334 119.006 163.5349
173.197364 119.021 163.6663
174.452424 119.037 163.7466
175.716578 119.054 163.7774
176.989893 119.069 163.7632
178.272434 119.081 163.7103
179.564270 119.090 163.6260
180.865467 119.094 163.5178
182.176092 119.094 163.3928
183.496216 119.089 163.2567
184.825905 119.081 163.1140
186.165229 119.068 162.9683
187.514259 119.052 162.8223
188.873065 119.034 162.6777
190.241717 119.012 162.5363
191.620287 118.988 162.3992
193.008847 118.961 162.2679
194.407468 118.932 162.1438
195.816225 118.901 162.0287
197.235190 118.868 161.9237
198.664438 118.833 161.8299
200.104042 118.796 161.7470
201.554078 118.759 161.6744
203.014622 118.721 161.6114
204.485750 118.682 161.5578
205.967538 118.642 161.5136
207.460064 118.601 161.4787
208.963405 118.560 161.4531
210.477640 118.518 161.4370
212.002848 118.476 161.4310
213.539108 118.432 161.4355
215.086500 118.388 161.4507
216.645105 118.344 161.4770
218.215005 118.300 161.5147
219.796281 118.256 161.5644
221.389015 118.212 161.6266
222.993292 118.169 161.7024
224.609193 118.126 161.7924
226.236804 118.083 161.8975
227.876209 118.042 162.0186
229.527494 118.001 162.1555
231.190745 117.963 162.3071
232.866048 117.928 162.4717
234.553491 117.895 162.6464
236.253163 117.866 162.8274
237.965150 117.840 163.0098
239.689544 117.818 163.1876
241.426433 117.800 163.3538
243.175909 117.784 163.5027
244.938062 117.770 163.6301
246.712984 117.758 163.7336
248.500768 117.746 163.8132
250.301507 117.733 163.8705
252.115295 117.720 163.9093
253.942226 117.705 163.9333
255.782396 117.687 163.9462
257.635901 117.668 163.9514
259.502837 117.646 163.9520
261.383301 117.622 163.9514
263.277392 117.595 163.9520
265.185209 117.568 163.9559
267.106850 117.538 163.9639
269.042417 117.507 163.9764
270.992009 117.475 163.9938
272.955729 117.443 164.0169
274.933678 117.409 164.0468
276.925961 117.374 164.0839
278.932681 117.339 164.1283
280.953942 117.303 164.1795
282.989850 117.267 164.2374
285.040511 117.231 164.3019
287.106032 117.194 164.3733
289.186521 117.157 164.4512
291.282086 117.120 164.5356
293.392836 117.084 164.6259
295.518881 117.047 164.7220
297.660333 117.010 164.8234
299.817302 116.974 164.9298
301.989902 116.937 165.0408
304.178245 116.901 165.1559
306.382446 116.865 165.2748
308.602620 116.829 165.3969
310.838882 116.793 165.5220
313.091348 116.757 165.6500
315.360137 116.721 165.7809
317.645367 116.686 165.9151
319.947156 116.651 166.0530
322.265625 116.616 166.1948
324.600895 116.581 166.3408
326.953086 116.546 166.4905
329.322323 116.512 166.6437
331.708729 116.477 166.7997
334.112427 116.443 166.9586
336.533543 116.409 167.1204
338.972204 116.375 167.2852
341.428536 116.341 167.4533
343.902668 116.307 167.6245
346.394729 116.274 167.7987
348.904848 116.241 167.9758
351.433156 116.207 168.1554
353.979786 116.174 168.3375
356.544869 116.141 168.5226
359.128540 116.108 168.7110
361.730934 116.076 168.9024
364.352185 116.043 169.0967
366.992431 116.011 169.2935
369.651810 115.979 169.4926
372.330459 115.947 169.6941
375.028519 115.916 169.8981
377.746130 115.885 170.1048
380.483434 115.853 170.3143
383.240574 115.822 170.5266
386.017693 115.791 170.7413
388.814937 115.761 170.9584
391.632450 115.730 171.1782
394.470380 115.700 171.4006
397.328875 115.670 171.6256
400.208084 115.640 171.8534
403.108157 115.610 172.0839
406.029245 115.581 172.3175
408.971500 115.551 172.5544
411.935076 115.522 172.7944
414.920127 115.494 173.0373
417.926810 115.465 173.2826
420.955280 115.437 173.5298
424.005695 115.409 173.7790
427.078215 115.381 174.0302
430.173000 115.353 174.2834
433.290211 115.326 174.5386
436.430010 115.299 174.7961
439.592562 115.272 175.0559
442.778031 115.245 175.3182
445.986583 115.219 175.5835
449.218386 115.192 175.8519
452.473607 115.166 176.1237
455.752418 115.141 176.3990
459.054987 115.115 176.6774
462.381489 115.090 176.9586
465.732096 115.064 177.2419
469.106983 115.039 177.5272
472.506325 115.014 177.8141
475.930301 114.990 178.1029
479.379088 114.965 178.3942
482.852867 114.941 178.6885
486.351817 114.917 178.9858
489.876123 114.893 179.2863
493.425968 114.870 179.5898
497.001536 114.847 179.8964
500.603014 114.824 -179.7941
504.230589 114.801 -179.4818
507.884452 114.778 -179.1667
511.564792 114.756 -178.8490
515.271802 114.734 -178.5289
519.005673 114.712 -178.2063
522.766602 114.691 -177.8811
526.554785 114.670 -177.5535
530.370418 114.649 -177.2233
534.213700 114.628 -176.8905
538.084833 114.608 -176.5549
541.984018 114.589 -176.2161
545.911457 114.569 -175.8741
549.867357 114.550 -175.5288
553.851922 114.531 -175.1805
557.865362 114.512 -174.8289
561.907884 114.493 -174.4738
565.979700 114.475 -174.1151
570.081022 114.457 -173.7531
574.212064 114.440 -173.3881
578.373042 114.423 -173.0204
582.564171 114.406 -172.6502
586.785671 114.389 -172.2776
591.037762 114.373 -171.9025
595.320665 114.357 -171.5248
599.634604 114.341 -171.1438
603.979804 114.326 -170.7594
608.356491 114.311 -170.3712
612.764893 114.297 -169.9791
617.205240 114.283 -169.5831
621.677763 114.269 -169.1831
626.182696 114.256 -168.7794
630.720274 114.243 -168.3721
635.290733 114.231 -167.9613
639.894312 114.219 -167.5468
644.531250 114.207 -167.1283
649.201789 114.196 -166.7058
653.906173 114.186 -166.2795
658.644647 114.175 -165.8497
663.417457 114.166 -165.4162
668.224854 114.157 -164.9788
673.067086 114.148 -164.5374
677.944408 114.140 -164.0920
682.857073 114.133 -163.6425
687.805336 114.126 -163.1888
692.789457 114.120 -162.7306
697.809695 114.114 -162.2680
702.866312 114.109 -161.8010
707.959571 114.105 -161.3299
713.089738 114.102 -160.8546
718.257080 114.099 -160.3752
723.461867 114.097 -159.8920
728.704370 114.095 -159.4050
733.984862 114.095 -158.9142
739.303619 114.095 -158.4194
744.660918 114.096 -157.9204
750.057038 114.098 -157.4172
755.492260 114.101 -156.9099
760.966869 114.105 -156.3986
766.481148 114.110 -155.8835
772.035387 114.115 -155.3645
777.629873 114.122 -154.8414
783.264900 114.131 -154.3143
788.940760 114.140 -153.7836
794.657750 114.150 -153.2497
800.416168 114.161 -152.7130
806.216313 114.174 -152.1739
812.058489 114.188 -151.6322
817.943000 114.202 -151.0878
823.870152 114.219 -150.5406
829.840255 114.236 -149.9910
835.853619 114.255 -149.4394
841.910559 114.275 -148.8858
848.011390 114.296 -148.3304
854.156430 114.319 -147.7735
860.346000 114.343 -147.2154
866.580422 114.369 -146.6562
872.860020 114.396 -146.0961
879.185124 114.425 -145.5350
885.556062 114.456 -144.9732
891.973166 114.489 -144.4106
898.436771 114.523 -143.8475
904.947215 114.558 -143.2846
911.504835 114.596 -142.7230
918.109975 114.634 -142.1633
924.762978 114.675 -141.6064
931.464192 114.717 -141.0525
938.213966 114.761 -140.5022
945.012651 114.807 -139.9560
951.860602 114.854 -139.4140
958.758176 114.903 -138.8765
965.705733 114.954 -138.3440
972.703635 115.006 -137.8170
979.752246 115.060 -137.2959
986.851935 115.115 -136.7813
994.003071 115.172 -136.2736
1001.206027 115.230 -135.7736
1008.461179 115.290 -135.2817
1015.768904 115.351 -134.7985
1023.129584 115.414 -134.3244
1030.543603 115.477 -133.8596
1038.011347 115.542 -133.4046
1045.533205 115.608 -132.9594
1053.109569 115.676 -132.5243
1060.740836 115.744 -132.0992
1068.427401 115.813 -131.6844
1076.169666 115.882 -131.2802
1083.968035 115.953 -130.8871
1091.822915 116.024 -130.5052
1099.734713 116.095 -130.1343
1107.703844 116.167 -129.7742
1115.730723 116.240 -129.4249
1123.815768 116.313 -129.0865
1131.959400 116.387 -128.7592
1140.162045 116.461 -128.4426
1148.424129 116.535 -128.1364
1156.746083 116.609 -127.8399
1165.128342 116.682 -127.5527
1173.571343 116.756 -127.2742
1182.075524 116.829 -127.0044
1190.641331 116.902 -126.7435
1199.269209 116.974 -126.4916
1207.959608 117.046 -126.2487
1216.712981 117.118 -126.0145
1225.529785 117.190 -125.7883
1234.410479 117.261 -125.5696
1243.355526 117.332 -125.3580
1252.365393 117.402 -125.1530
1261.440549 117.472 -124.9539
1270.581467 117.542 -124.7605
1279.788624 117.612 -124.5726
1289.062500 117.681 -124.3902
1298.403578 117.750 -124.2135
1307.812346 117.818 -124.0423
1317.289293 117.886 -123.8766
1326.834914 117.954 -123.7160
1336.449707 118.022 -123.5606
1346.134173 118.090 -123.4100
1355.888816 118.157 -123.2641
1365.714145 118.224 -123.1225
1375.610673 118.291 -122.9853
1385.578915 118.358 -122.8526
1395.619391 118.425 -122.7248
1405.732624 118.491 -122.6019
1415.919142 118.558 -122.4841
1426.179476 118.624 -122.3717
1436.514160 118.690 -122.2645
1446.923734 118.757 -122.1629
1457.408740 118.823 -122.0668
1467.969724 118.889 -121.9766
1478.607238 118.955 -121.8923
1489.321836 119.020 -121.8143
1500.114076 119.086 -121.7426
1510.984521 119.152 -121.6773
1521.933737 119.217 -121.6184
1532.962297 119.283 -121.5665
1544.070773 119.348 -121.5218
1555.259747 119.413 -121.4850
1566.529800 119.478 -121.4562
1577.881521 119.542 -121.4360
1589.315501 119.606 -121.4243
1600.832336 119.670 -121.4212
1612.432627 119.733 -121.4269
1624.116978 119.796 -121.4413
1635.886000 119.858 -121.4646
1647.740304 119.920 -121.4973
1659.680509 119.981 -121.5395
1671.707238 120.041 -121.5915
1683.821118 120.101 -121.6534
1696.022780 120.159 -121.7251
1708.312860 120.217 -121.8067
1720.692000 120.273 -121.8981
1733.160843 120.329 -121.9992
1745.720041 120.383 -122.1098
1758.370248 120.436 -122.2298
1771.112124 120.487 -122.3589
1783.946332 120.537 -122.4969
1796.873543 120.586 -122.6437
1809.894429 120.632 -122.7989
1823.009670 120.677 -122.9621
1836.219950 120.720 -123.1328
1849.525956 120.761 -123.3104
1862.928384 120.800 -123.4946
1876.427931 120.837 -123.6846
1890.025301 120.871 -123.8799
1903.721204 120.904 -124.0800
1917.516352 120.933 -124.2841
1931.411466 120.961 -124.4916
1945.407270 120.985 -124.7017
1959.504493 121.008 -124.9135
1973.703870 121.028 -125.1259
1988.006142 121.045 -125.3381
2002.412054 121.059 -125.5490
2016.922357 121.071 -125.7576
2031.537808 121.081 -125.9631
2046.259169 121.087 -126.1646
2061.087206 121.091 -126.3614
2076.022694 121.093 -126.5525
2091.066410 121.093 -126.7372
2106.219139 121.090 -126.9144
2121.481671 121.084 -127.0833
2136.854802 121.077 -127.2428
2152.339333 121.067 -127.3922
2167.936071 121.055 -127.5306
2183.645829 121.041 -127.6574
2199.469427 121.025 -127.7720
2215.407689 121.008 -127.8740
2231.461446 120.989 -127.9627
2247.631536 120.968 -128.0377
2263.918800 120.946 -128.0984
2280.324089 120.922 -128.1446
2296.848258 120.898 -128.1761
2313.492167 120.873 -128.1925
2330.256685 120.847 -128.1938
2347.142685 120.820 -128.1799
2364.151049 120.793 -128.1506
2381.282662 120.765 -128.1057
2398.538418 120.737 -128.0451
2415.919216 120.709 -127.9685
2433.425962 120.680 -127.8759
2451.059570 120.652 -127.7672
2468.820958 120.624 -127.6429
2486.711052 120.597 -127.5035
2504.730786 120.571 -127.3497
2522.881098 120.545 -127.1821
2541.162934 120.520 -127.0014
2559.577248 120.496 -126.8079
2578.125000 120.473 -126.6017
2596.807157 120.452 -126.3831
2615.624692 120.433 -126.1526
2634.578586 120.415 -125.9109
2653.669829 120.399 -125.6589
2672.899414 120.384 -125.3976
2692.268345 120.373 -125.1282
2711.777632 120.363 -124.8518
2731.428290 120.356 -124.5695
2751.221345 120.351 -124.2824
2771.157829 120.349 -123.9917
2791.238781 120.351 -123.6988
2811.465248 120.355 -123.4056
2831.838284 120.362 -123.1140
2852.358952 120.372 -122.8260
2873.028321 120.385 -122.5438
2893.847468 120.402 -122.2696
2914.817480 120.422 -122.0054
2935.939449 120.445 -121.7536
2957.214476 120.472 -121.5164
2978.643672 120.503 -121.2963
3000.228152 120.536 -121.0958
3021.969041 120.573 -120.9174
3043.867475 120.613 -120.7637
3065.924593 120.656 -120.6374
3088.141547 120.702 -120.5411
3110.519493 120.751 -120.4776
3133.059600 120.801 -120.4497
3155.763041 120.854 -120.4604
3178.631001 120.909 -120.5126
3201.664672 120.965 -120.6091
3224.865254 121.022 -120.7529
3248.233957 121.080 -120.9468
3271.771999 121.137 -121.1935
3295.480608 121.194 -121.4952
3319.361019 121.249 -121.8539
3343.414477 121.303 -122.2713
3367.642236 121.353 -122.7486
3392.045560 121.400 -123.2867
3416.625721 121.442 -123.8862
3441.383999 121.478 -124.5467
3466.321686 121.507 -125.2671
3491.440082 121.529 -126.0452
3516.740496 121.542 -126.8778
3542.224247 121.545 -127.7605
3567.892664 121.537 -128.6874
3593.747085 121.517 -129.6518
3619.788858 121.485 -130.6458
3646.019340 121.440 -131.6609
3672.439900 121.381 -132.6883
3699.051913 121.308 -133.7184
3725.856768 121.221 -134.7413
3752.855862 121.121 -135.7471
3780.050603 121.007 -136.7255
3807.442408 120.881 -137.6667
3835.032705 120.744 -138.5612
3862.822933 120.595 -139.4002
3890.814540 120.438 -140.1761
3919.008986 120.272 -140.8824
3947.407741 120.101 -141.5145
3976.012284 119.926 -142.0692
4004.824108 119.748 -142.5457
4033.844715 119.570 -142.9450
4063.075616 119.394 -143.2704
4092.518337 119.222 -143.5273
4122.174412 119.057 -143.7234
4152.045387 118.899 -143.8687
4182.132820 118.750 -143.9753
4212.438278 118.612 -144.0574
4242.963342 118.486 -144.1306
4273.709604 118.372 -144.2121
4304.678665 118.270 -144.3197
4335.872141 118.179 -144.4719
4367.291658 118.100 -144.6871
4398.938854 118.029 -144.9822
4430.815378 117.965 -145.3718
4462.922893 117.905 -145.8671
4495.263072 117.846 -146.4751
4527.837601 117.784 -147.1985
4560.648179 117.716 -148.0350
4593.696515 117.638 -148.9774
4626.984334 117.546 -150.0135
4660.513370 117.438 -151.1266
4694.285371 117.311 -152.2963
4728.302098 117.165 -153.4996
4762.565324 116.997 -154.7118
4797.076835 116.808 -155.9079
4831.838432 116.599 -157.0640
4866.851925 116.371 -158.1579
4902.119140 116.127 -159.1708
4937.641916 115.870 -160.0871
4973.422105 115.601 -160.8953
5009.461572 115.326 -161.5874
5045.762195 115.047 -162.1598
5082.325868 114.767 -162.6120
5119.154496 114.489 -162.9465
5156.250000 114.217 -163.1679
5193.614313 113.953 -163.2825
5231.249383 113.699 -163.2977
5269.157173 113.458 -163.2213
5307.339658 113.230 -163.0614
5345.798829 113.017 -162.8261
5384.536691 112.820 -162.5235
5423.555263 112.640 -162.1609
5462.856580 112.477 -161.7448
5502.442691 112.332 -161.2805
5542.315659 112.205 -160.7725
5582.477563 112.097 -160.2251
5622.930497 112.006 -159.6422
5663.676569 111.934 -159.0270
5704.717904 111.880 -158.3826
5746.056642 111.844 -157.7109
5787.694937 111.827 -157.0140
5829.634960 111.828 -156.2934
5871.878898 111.848 -155.5508
5914.428953 111.887 -154.7877
5957.287343 111.944 -154.0052
6000.456303 112.020 -153.2044
6043.938083 112.114 -152.3867
6087.734950 112.228 -151.5539
6131.849187 112.361 -150.7077
6176.283094 112.514 -149.8501
6221.038987 112.687 -148.9829
6266.119200 112.879 -148.1081
6311.526083 113.091 -147.2283
6357.262002 113.324 -146.3462
6403.329344 113.578 -145.4650
6449.730508 113.853 -144.5885
6496.467914 114.150 -143.7207
6543.543998 114.469 -142.8670
6590.961215 114.811 -142.0335
6638.722037 115.176 -141.2278
6686.828954 115.567 -140.4583
6735.284473 115.984 -139.7351
6784.091120 116.427 -139.0698
6833.251441 116.899 -138.4764
6882.767998 117.400 -137.9718
6932.643372 117.931 -137.5767
6982.880164 118.494 -137.3163
7033.480992 119.089 -137.2206
7084.448495 119.717 -137.3250
7135.785329 120.376 -137.6706
7187.494171 121.064 -138.3047
7239.577717 121.778 -139.2801
7292.038681 122.511 -140.6527
7344.879799 123.254 -142.4787
7398.103826 123.996 -144.8097
7451.713536 124.721 -147.6871
7505.711724 125.413 -151.1357
7560.101205 126.052 -155.1568
7614.884815 126.619 -159.7225
7670.065409 127.095 -164.7707
7725.645865 127.463 -170.2046
7781.629080 127.709 -175.8951
7838.017972 127.827 178.3103
7894.815481 127.817 172.5753
7952.024569 127.683 167.0585
8009.648217 127.437 161.8995
8067.689429 127.097 157.2079
8126.151233 126.681 153.0583
8185.036674 126.208 149.4906
8244.348824 125.698 146.5142
8304.090774 125.167 144.1146
8364.265639 124.629 142.2611
8424.876556 124.097 140.9136
8485.926684 123.579 140.0270
8547.419207 123.085 139.5511
8609.357330 122.620 139.4262
8671.744282 122.192 139.5768
8734.583316 121.800 139.9122
8797.877707 121.441 140.3474
8861.630756 121.106 140.8348
8925.845785 120.784 141.3745
8990.526143 120.469 141.9936
9055.675202 120.160 142.7212
9121.296357 119.860 143.5763
9187.393031 119.572 144.5654
9253.968668 119.303 145.6827
9321.026740 119.057 146.9064
9388.570742 118.838 148.1934
9456.604196 118.646 149.4817
9525.130648 118.474 150.7107
9594.153671 118.313 151.8525
9663.676863 118.152 152.9254
9733.703850 117.983 153.9709
9804.238280 117.806 155.0260
9875.283832 117.620 156.1110
9946.844210 117.427 157.2297
10018.923143 117.230 158.3751
10091.524390 117.029 159.5342
10164.651736 116.823 160.6958
10238.308993 116.611 161.8593
10312.500000 116.389 163.0393
10387.228626 116.157 164.2567
10462.498767 115.916 165.5250
10538.314345 115.667 166.8484
10614.679315 115.410 168.2291
10691.597657 115.145 169.6733
10769.073381 114.869 171.1960
10847.110526 114.584 172.8210
10925.713161 114.291 174.5772
11004.885382 113.995 176.4896
11084.631318 113.703 178.5630
11164.955126 113.423 -179.2344
11245.860993 113.161 -176.9743
11327.353138 112.918 -174.7404
11409.435808 112.686 -172.5886
11492.113283 112.458 -170.5279
11575.389873 112.227 -168.5343
11659.269920 111.990 -166.5766
11743.757796 111.745 -164.6340
11828.857906 111.494 -162.7006
11914.574686 111.235 -160.7809
12000.912606 110.969 -158.8810
12087.876166 110.692 -157.0007
12175.469900 110.403 -155.1302
12263.698373 110.100 -153.2513
12352.566187 109.780 -151.3420
12442.077974 109.446 -149.3813
12532.238400 109.097 -147.3527
12623.052165 108.735 -145.2458
12714.524005 108.362 -143.0553
12806.658687 107.979 -140.7803
12899.461015 107.586 -138.4221
12992.935827 107.183 -135.9834
13087.087996 106.770 -133.4644
13181.922430 106.344 -130.8578
13277.444074 105.904 -128.1393
13373.657907 105.445 -125.2532
13470.568945 104.965 -122.0926
13568.182241 104.467 -118.4833
13666.502883 103.965 -114.1940
13765.535996 103.490 -109.0312
13865.286744 103.090 -103.0625
13965.760328 102.802 -96.8363
14066.961984 102.612 -91.1818
14168.896989 102.457 -86.5565
14271.570658 102.263 -82.7639
14374.988342 101.995 -79.2696
14479.155433 101.656 -75.5481
14584.077362 101.276 -71.2380
14689.759598 100.896 -66.1927
14796.207652 100.556 -60.4886
14903.427072 100.284 -54.3693
15011.423448 100.090 -48.1047
15120.202410 99.972 -41.8496
15229.769630 99.927 -35.6505
15340.130819 99.957 -29.5666
15451.291730 100.061 -23.7402
15563.258160 100.231 -18.3643
15676.035944 100.446 -13.6031
15789.630962 100.682 -9.5362
15904.049137 100.910 -6.1513
16019.296433 101.110 -3.3702
16135.378859 101.265 -1.0845
16252.302465 101.366 0.8148
16370.073348 101.406 2.4172
16488.697648 101.384 3.7807
16608.181548 101.295 4.9355
16728.531278 101.133 5.9027
16849.753112 100.886 6.7256
16971.853368 100.541 7.5038
17094.838414 100.085 8.4080
17218.714660 99.520 9.6439
17343.488565 98.856 11.3690
17469.166632 98.110 13.6530
17595.755415 97.297 16.5188
17723.261512 96.425 19.9914
17851.691571 95.503 24.1186
17981.052287 94.538 28.9797
18111.350404 93.539 34.6846
18242.592715 92.517 41.3720
18374.786062 91.491 49.2099
18507.937336 90.485 58.3947
18642.053479 89.537 69.1060
18777.141484 88.693 81.3543
18913.208391 88.003 94.7214
19050.261296 87.504 108.2481
19188.307342 87.198 120.7852
19327.353727 87.050 131.5560
19467.407699 87.006 140.3454
19608.476560 87.009 147.2768
19750.567664 87.023 152.5214
19893.688419 87.033 156.1409
20037.846286 87.037 158.0729
