* Measurement data measured by REW V5.31.3
* Source: EXCL: Микрофон (CX31993 384Khz HIFI AUDIO), MICROPHONE (Общая громкость), 0, volume: 1,000
* Format: 256k Log Swept Sine, 1 sweep at -20,0 dBFS with no timing reference
* Dated: 26.05.2025 16:44:51
* REW Settings:
*  C-weighting compensation: Off
*  Target level: 75.0 dB
* Note: 
* Measurement: CKLVX CK2V
* Smoothing: 1/12 octave
* Frequency Step: 96 ppo
* Start Frequency: 20.187378 Hz
*
* Freq(Hz) SPL(dB) Phase(degrees)
20.187378 96.385 -172.7255
20.333664 96.377 -172.8762
20.481010 96.365 -173.0948
20.629424 96.351 -173.3559
20.778913 96.335 -173.6384
20.929486 96.318 -173.9277
21.081150 96.303 -174.2160
21.233912 96.290 -174.5003
21.387782 96.280 -174.7809
21.542767 96.273 -175.0598
21.698874 96.269 -175.3396
21.856113 96.269 -175.6226
22.014492 96.270 -175.9104
22.174018 96.273 -176.2033
22.334700 96.277 -176.5006
22.496546 96.281 -176.8006
22.659566 96.284 -177.1009
22.823766 96.287 -177.3991
22.989157 96.288 -177.6928
23.155745 96.287 -177.9805
23.323542 96.285 -178.2614
23.492554 96.281 -178.5359
23.662790 96.275 -178.8059
23.834261 96.268 -179.0742
24.006973 96.260 -179.3444
24.180938 96.251 -179.6209
24.356163 96.240 -179.9078
24.532658 96.228 179.7911
24.710431 96.214 179.4732
24.889493 96.199 179.1372
25.069853 96.182 178.7835
25.251519 96.163 178.4145
25.434502 96.143 178.0340
25.618811 96.122 177.6472
25.804456 96.100 177.2604
25.991445 96.079 176.8795
26.179790 96.059 176.5100
26.369500 96.041 176.1561
26.560584 96.027 175.8200
26.753053 96.016 175.5016
26.946917 96.010 175.1986
27.142185 96.008 174.9069
27.338869 96.010 174.6211
27.536977 96.015 174.3354
27.736522 96.020 174.0445
27.937512 96.026 173.7446
28.139959 96.029 173.4339
28.343872 96.028 173.1125
28.549264 96.022 172.7829
28.756143 96.011 172.4490
28.964522 95.993 172.1157
29.174411 95.971 171.7879
29.385821 95.944 171.4698
29.598763 95.914 171.1640
29.813248 95.882 170.8711
30.029287 95.852 170.5898
30.246891 95.823 170.3171
30.466073 95.797 170.0486
30.686842 95.775 169.7798
30.909212 95.757 169.5067
31.133193 95.741 169.2263
31.358797 95.729 168.9371
31.586035 95.718 168.6392
31.814921 95.708 168.3337
32.045465 95.697 168.0223
32.277680 95.686 167.7070
32.511577 95.674 167.3893
32.747169 95.660 167.0706
32.984469 95.645 166.7519
33.223488 95.628 166.4341
33.464239 95.610 166.1184
33.706735 95.591 165.8058
33.950987 95.572 165.4974
34.197010 95.552 165.1941
34.444816 95.534 164.8955
34.694417 95.516 164.6007
34.945827 95.499 164.3076
35.199059 95.484 164.0136
35.454126 95.469 163.7164
35.711041 95.453 163.4144
35.969818 95.437 163.1075
36.230470 95.419 162.7968
36.493011 95.399 162.4844
36.757455 95.378 162.1722
37.023814 95.355 161.8613
37.292104 95.331 161.5515
37.562338 95.307 161.2416
37.834530 95.283 160.9301
38.108695 95.259 160.6166
38.384846 95.234 160.3023
38.662999 95.208 159.9908
38.943167 95.182 159.6869
39.225365 95.154 159.3954
39.509608 95.127 159.1190
39.795911 95.100 158.8572
40.084289 95.075 158.6054
40.374756 95.051 158.3564
40.667328 95.029 158.1024
40.962020 95.007 157.8375
41.258848 94.985 157.5596
41.557827 94.961 157.2708
41.858972 94.936 156.9762
42.162299 94.908 156.6818
42.467824 94.880 156.3923
42.775564 94.851 156.1090
43.085533 94.823 155.8305
43.397749 94.795 155.5527
43.712227 94.768 155.2717
44.028983 94.740 154.9842
44.348036 94.712 154.6893
44.669400 94.683 154.3881
44.993093 94.653 154.0828
45.319131 94.621 153.7768
45.647532 94.588 153.4742
45.978313 94.556 153.1796
46.311491 94.525 152.8973
46.647083 94.496 152.6303
46.985107 94.470 152.3789
47.325581 94.449 152.1397
47.668521 94.431 151.9064
48.013947 94.414 151.6713
48.361876 94.398 151.4283
48.712326 94.377 151.1750
49.065315 94.351 150.9138
49.420863 94.318 150.6499
49.778987 94.277 150.3897
50.139706 94.232 150.1365
50.503039 94.185 149.8881
50.869005 94.139 149.6354
51.237623 94.097 149.3647
51.608912 94.060 149.0623
51.982891 94.027 148.7213
52.359580 93.995 148.3465
52.739000 93.961 147.9548
53.121168 93.923 147.5710
53.506106 93.880 147.2181
53.893833 93.834 146.9096
54.284370 93.788 146.6443
54.677737 93.742 146.4091
55.073955 93.698 146.1860
55.473043 93.656 145.9598
55.875024 93.614 145.7228
56.279917 93.572 145.4743
56.687745 93.530 145.2180
57.098527 93.487 144.9593
57.512287 93.445 144.7030
57.929045 93.403 144.4530
58.348822 93.361 144.2109
58.771642 93.319 143.9753
59.197525 93.278 143.7423
59.626495 93.236 143.5073
60.058573 93.194 143.2679
60.493782 93.150 143.0248
60.932145 93.104 142.7809
61.373685 93.056 142.5388
61.818424 93.008 142.2992
62.266386 92.960 142.0610
62.717593 92.913 141.8228
63.172071 92.866 141.5847
63.629842 92.819 141.3486
64.090930 92.772 141.1168
64.555359 92.725 140.8907
65.023154 92.679 140.6702
65.494339 92.633 140.4532
65.968938 92.586 140.2370
66.446976 92.538 140.0196
66.928478 92.489 139.7998
67.413469 92.438 139.5772
67.901975 92.387 139.3519
68.394021 92.335 139.1244
68.889632 92.282 138.8961
69.388835 92.229 138.6694
69.891655 92.176 138.4471
70.398118 92.123 138.2308
70.908252 92.070 138.0198
71.422083 92.016 137.8115
71.939636 91.962 137.6029
72.460941 91.908 137.3936
72.986023 91.852 137.1865
73.514909 91.797 136.9867
74.047629 91.740 136.7985
74.584208 91.683 136.6215
75.124676 91.626 136.4507
75.669061 91.567 136.2790
76.217390 91.508 136.1023
76.769692 91.448 135.9218
77.325997 91.389 135.7433
77.886333 91.329 135.5720
78.450730 91.271 135.4103
79.019216 91.213 135.2570
79.591822 91.155 135.1088
80.168577 91.099 134.9622
80.749512 91.043 134.8151
81.334656 90.988 134.6677
81.924040 90.933 134.5225
82.517696 90.878 134.3817
83.115653 90.822 134.2441
83.717943 90.764 134.1062
84.324598 90.706 133.9644
84.935649 90.646 133.8177
85.551128 90.586 133.6669
86.171066 90.525 133.5128
86.795497 90.464 133.3553
87.424453 90.403 133.1932
88.057967 90.341 133.0260
88.696071 90.280 132.8560
89.338800 90.218 132.6896
89.986185 90.157 132.5338
90.638262 90.095 132.3940
91.295065 90.032 132.2719
91.956626 89.968 132.1658
92.622982 89.903 132.0716
93.294166 89.837 131.9838
93.970214 89.770 131.8975
94.651161 89.703 131.8088
95.337042 89.634 131.7155
96.027894 89.565 131.6167
96.723752 89.496 131.5137
97.424652 89.426 131.4101
98.130631 89.356 131.3103
98.841726 89.288 131.2186
99.557974 89.219 131.1395
100.279412 89.150 131.0762
101.006078 89.080 131.0280
101.738010 89.008 130.9880
102.475245 88.934 130.9479
103.217823 88.861 130.9028
103.965782 88.787 130.8535
104.719161 88.713 130.8040
105.477999 88.640 130.7596
106.242336 88.567 130.7244
107.012212 88.494 130.7007
107.787666 88.421 130.6874
108.568740 88.348 130.6816
109.355474 88.274 130.6798
110.147909 88.200 130.6796
110.946086 88.126 130.6794
111.750047 88.051 130.6779
112.559834 87.976 130.6757
113.375489 87.902 130.6766
114.197055 87.826 130.6858
115.024574 87.751 130.7065
115.858089 87.675 130.7392
116.697645 87.599 130.7817
117.543284 87.523 130.8318
118.395051 87.447 130.8872
119.252990 87.370 130.9462
120.117147 87.294 131.0089
120.987565 87.217 131.0766
121.864291 87.140 131.1501
122.747370 87.063 131.2282
123.636848 86.987 131.3077
124.532771 86.911 131.3863
125.435187 86.836 131.4635
126.344142 86.762 131.5408
127.259684 86.689 131.6210
128.181860 86.615 131.7100
129.110718 86.540 131.8167
130.046308 86.463 131.9478
130.988677 86.385 132.1037
131.937875 86.307 132.2787
132.893951 86.229 132.4642
133.856956 86.151 132.6536
134.826938 86.073 132.8438
135.803950 85.996 133.0334
136.788041 85.920 133.2223
137.779264 85.844 133.4101
138.777669 85.769 133.5977
139.783309 85.693 133.7880
140.796237 85.617 133.9848
141.816504 85.541 134.1898
142.844165 85.465 134.4036
143.879273 85.389 134.6273
144.921881 85.314 134.8622
145.972045 85.241 135.1086
147.029819 85.170 135.3658
148.095257 85.102 135.6328
149.168417 85.035 135.9087
150.249353 84.968 136.1919
151.338121 84.903 136.4806
152.434780 84.837 136.7734
153.539385 84.771 137.0706
154.651995 84.705 137.3733
155.772667 84.640 137.6816
156.901460 84.576 137.9937
158.038432 84.512 138.3083
159.183644 84.449 138.6268
160.337154 84.387 138.9518
161.499023 84.326 139.2841
162.669312 84.265 139.6226
163.848081 84.204 139.9662
165.035392 84.144 140.3146
166.231306 84.085 140.6686
167.435887 84.027 141.0291
168.649196 83.969 141.3964
169.871298 83.912 141.7695
171.102255 83.855 142.1473
172.342133 83.801 142.5292
173.590995 83.748 142.9147
174.848907 83.696 143.3032
176.115934 83.646 143.6934
177.392143 83.598 144.0840
178.677599 83.551 144.4753
179.972371 83.504 144.8694
181.276525 83.459 145.2695
182.590129 83.414 145.6772
183.913252 83.370 146.0908
185.245964 83.327 146.5070
186.588332 83.285 146.9234
187.940428 83.244 147.3390
189.302322 83.206 147.7541
190.674085 83.168 148.1698
192.055788 83.132 148.5865
193.447503 83.098 149.0036
194.849303 83.064 149.4206
196.261262 83.031 149.8377
197.683452 82.998 150.2562
199.115948 82.967 150.6775
200.558824 82.936 151.1027
202.012156 82.907 151.5316
203.476019 82.878 151.9623
204.950490 82.850 152.3927
206.435646 82.823 152.8222
207.931564 82.797 153.2513
209.438322 82.772 153.6804
210.955998 82.749 154.1089
212.484672 82.726 154.5356
214.024424 82.705 154.9604
215.575333 82.684 155.3834
217.137481 82.664 155.8048
218.710948 82.645 156.2236
220.295818 82.627 156.6369
221.892172 82.610 157.0438
223.500094 82.594 157.4467
225.119668 82.578 157.8497
226.750978 82.563 158.2553
228.394109 82.549 158.6637
230.049147 82.535 159.0734
231.716178 82.521 159.4824
233.395289 82.508 159.8916
235.086567 82.494 160.3047
236.790102 82.481 160.7261
238.505980 82.468 161.1581
240.234293 82.456 161.6005
241.975130 82.444 162.0525
243.728581 82.434 162.5135
245.494739 82.425 162.9823
247.273695 82.419 163.4551
249.065542 82.416 163.9268
250.870374 82.418 164.3921
252.688284 82.424 164.8483
254.519367 82.435 165.2950
256.363720 82.448 165.7317
258.221437 82.464 166.1560
260.092616 82.482 166.5662
261.977354 82.501 166.9608
263.875750 82.522 167.3379
265.787903 82.544 167.6964
267.713911 82.567 168.0358
269.653877 82.590 168.3565
271.607900 82.613 168.6592
273.576083 82.636 168.9446
275.558528 82.658 169.2139
277.555338 82.679 169.4683
279.566619 82.698 169.7097
281.592474 82.717 169.9403
283.633009 82.734 170.1621
285.688331 82.749 170.3771
287.758546 82.764 170.5867
289.843763 82.777 170.7927
291.944090 82.790 170.9968
294.059638 82.802 171.2006
296.190515 82.814 171.4051
298.336833 82.825 171.6108
300.498705 82.836 171.8176
302.676243 82.845 172.0251
304.869559 82.855 172.2322
307.078770 82.864 172.4374
309.303989 82.872 172.6388
311.545334 82.880 172.8352
313.802919 82.888 173.0277
316.076865 82.895 173.2185
318.367288 82.903 173.4093
320.674309 82.910 173.6008
322.998047 82.918 173.7928
325.338624 82.925 173.9843
327.696162 82.932 174.1748
330.070783 82.940 174.3640
332.462612 82.947 174.5514
334.871773 82.954 174.7366
337.298392 82.962 174.9186
339.742595 82.969 175.0966
342.204510 82.976 175.2707
344.684265 82.983 175.4419
347.181989 82.990 175.6120
349.697813 82.996 175.7834
352.231868 83.003 175.9579
354.784285 83.009 176.1351
357.355198 83.016 176.3124
359.944741 83.022 176.4880
362.553049 83.029 176.6610
365.180258 83.036 176.8320
367.826505 83.043 177.0020
370.491927 83.049 177.1712
373.176665 83.055 177.3388
375.880856 83.062 177.5040
378.604644 83.068 177.6664
381.348169 83.073 177.8266
384.111575 83.079 177.9853
386.895006 83.084 178.1423
389.698607 83.089 178.2972
392.522524 83.094 178.4503
395.366904 83.099 178.6025
398.231895 83.104 178.7554
401.117648 83.109 178.9102
404.024312 83.114 179.0670
406.952038 83.119 179.2249
409.900981 83.123 179.3823
412.871292 83.128 179.5383
415.863128 83.132 179.6928
418.876643 83.135 179.8458
421.911996 83.139 179.9975
424.969344 83.142 -179.8518
428.048847 83.145 -179.7014
431.150666 83.148 -179.5510
434.274961 83.151 -179.4007
437.421897 83.153 -179.2508
440.591636 83.155 -179.1013
443.784345 83.157 -178.9510
447.000189 83.158 -178.7989
450.239337 83.160 -178.6441
453.501956 83.163 -178.4875
456.788219 83.166 -178.3307
460.098294 83.169 -178.1755
463.432356 83.172 -178.0218
466.790578 83.174 -177.8690
470.173135 83.177 -177.7161
473.580203 83.179 -177.5633
477.011961 83.181 -177.4110
480.468586 83.183 -177.2596
483.950259 83.185 -177.1090
487.457163 83.186 -176.9585
490.989478 83.187 -176.8076
494.547390 83.188 -176.6561
498.131084 83.189 -176.5040
501.740748 83.190 -176.3511
505.376568 83.190 -176.1972
509.038735 83.191 -176.0421
512.727439 83.191 -175.8852
516.442874 83.191 -175.7259
520.185232 83.190 -175.5642
523.954708 83.190 -175.4008
527.751500 83.190 -175.2362
531.575805 83.190 -175.0708
535.427822 83.190 -174.9052
539.307753 83.191 -174.7395
543.215800 83.192 -174.5738
547.152165 83.193 -174.4075
551.117055 83.193 -174.2393
555.110677 83.193 -174.0685
559.133237 83.193 -173.8962
563.184947 83.193 -173.7234
567.266018 83.193 -173.5507
571.376661 83.193 -173.3776
575.517092 83.192 -173.2038
579.687526 83.191 -173.0293
583.888181 83.190 -172.8540
588.119275 83.189 -172.6778
592.381030 83.188 -172.5007
596.673667 83.187 -172.3221
600.997410 83.186 -172.1418
605.352485 83.184 -171.9593
609.739119 83.183 -171.7745
614.157540 83.181 -171.5872
618.607979 83.180 -171.3974
623.090667 83.179 -171.2051
627.605839 83.178 -171.0101
632.153730 83.176 -170.8127
636.734576 83.175 -170.6128
641.348617 83.175 -170.4100
645.996094 83.174 -170.2038
650.677248 83.173 -169.9938
655.392323 83.172 -169.7799
660.141566 83.170 -169.5623
664.925224 83.169 -169.3418
669.743546 83.168 -169.1187
674.596784 83.167 -168.8932
679.485191 83.166 -168.6653
684.409020 83.167 -168.4348
689.368530 83.167 -168.2016
694.363979 83.168 -167.9655
699.395626 83.169 -167.7268
704.463736 83.170 -167.4856
709.568570 83.172 -167.2426
714.710396 83.175 -166.9983
719.889483 83.177 -166.7536
725.106099 83.180 -166.5086
730.360516 83.184 -166.2631
735.653010 83.187 -166.0161
740.983855 83.191 -165.7666
746.353329 83.195 -165.5145
751.761713 83.199 -165.2597
757.209288 83.203 -165.0031
762.696339 83.207 -164.7454
768.223151 83.212 -164.4870
773.790013 83.217 -164.2280
779.397214 83.223 -163.9685
785.045047 83.229 -163.7089
790.733808 83.235 -163.4496
796.463791 83.242 -163.1902
802.235296 83.249 -162.9299
808.048623 83.257 -162.6679
813.904077 83.264 -162.4031
819.801961 83.272 -162.1352
825.742584 83.279 -161.8643
831.726255 83.286 -161.5905
837.753287 83.294 -161.3134
843.823992 83.302 -161.0323
849.938689 83.310 -160.7465
856.097695 83.318 -160.4555
862.301332 83.327 -160.1594
868.549922 83.336 -159.8582
874.843793 83.346 -159.5519
881.183272 83.357 -159.2404
887.568689 83.368 -158.9235
894.000378 83.380 -158.6014
900.478673 83.393 -158.2741
907.003913 83.407 -157.9422
913.576437 83.422 -157.6065
920.196588 83.438 -157.2675
926.864712 83.456 -156.9257
933.581156 83.476 -156.5811
940.346270 83.496 -156.2336
947.160407 83.518 -155.8834
954.023921 83.542 -155.5308
960.937172 83.567 -155.1767
967.900519 83.594 -154.8228
974.914325 83.622 -154.4709
981.978956 83.653 -154.1225
989.094780 83.684 -153.7787
996.262169 83.718 -153.4399
1003.481495 83.752 -153.1070
1010.753136 83.789 -152.7806
1018.077470 83.827 -152.4619
1025.454879 83.866 -152.1516
1032.885748 83.906 -151.8504
1040.370463 83.948 -151.5583
1047.909417 83.990 -151.2744
1055.503000 84.033 -150.9975
1063.151610 84.078 -150.7278
1070.855645 84.122 -150.4669
1078.615506 84.167 -150.2161
1086.431599 84.213 -149.9755
1094.304330 84.259 -149.7442
1102.234110 84.305 -149.5217
1110.221353 84.351 -149.3076
1118.266475 84.397 -149.1020
1126.369895 84.443 -148.9050
1134.532035 84.489 -148.7173
1142.753322 84.534 -148.5399
1151.034184 84.579 -148.3740
1159.375052 84.624 -148.2196
1167.776361 84.668 -148.0749
1176.238550 84.711 -147.9373
1184.762060 84.754 -147.8051
1193.347334 84.796 -147.6772
1201.994821 84.838 -147.5529
1210.704971 84.879 -147.4316
1219.478238 84.919 -147.3130
1228.315080 84.959 -147.1969
1237.215957 84.997 -147.0833
1246.181334 85.035 -146.9727
1255.211678 85.071 -146.8651
1264.307459 85.106 -146.7601
1273.469152 85.140 -146.6565
1282.697235 85.173 -146.5535
1291.992188 85.206 -146.4504
1301.354495 85.238 -146.3465
1310.784647 85.269 -146.2411
1320.283132 85.300 -146.1337
1329.850448 85.330 -146.0237
1339.487093 85.359 -145.9104
1349.193569 85.388 -145.7934
1358.970381 85.417 -145.6723
1368.818041 85.446 -145.5477
1378.737061 85.474 -145.4203
1388.727958 85.502 -145.2904
1398.791253 85.530 -145.1580
1408.927471 85.558 -145.0223
1419.137140 85.586 -144.8827
1429.420793 85.613 -144.7384
1439.778965 85.641 -144.5889
1450.212197 85.668 -144.4341
1460.721033 85.696 -144.2746
1471.306019 85.724 -144.1114
1481.967709 85.752 -143.9451
1492.706658 85.780 -143.7754
1503.523426 85.809 -143.6015
1514.418576 85.838 -143.4227
1525.392678 85.867 -143.2388
1536.446302 85.897 -143.0505
1547.580025 85.928 -142.8586
1558.794428 85.959 -142.6641
1570.090095 85.991 -142.4673
1581.467615 86.023 -142.2678
1592.927581 86.056 -142.0651
1604.470591 86.090 -141.8586
1616.097246 86.125 -141.6483
1627.808153 86.161 -141.4346
1639.603922 86.197 -141.2186
1651.485168 86.235 -141.0018
1663.452510 86.273 -140.7851
1675.506573 86.313 -140.5686
1687.647984 86.353 -140.3518
1699.877377 86.395 -140.1340
1712.195390 86.437 -139.9152
1724.602663 86.481 -139.6953
1737.099845 86.526 -139.4748
1749.687587 86.572 -139.2544
1762.366544 86.620 -139.0352
1775.137379 86.668 -138.8177
1788.000756 86.718 -138.6021
1800.957346 86.769 -138.3883
1814.007826 86.821 -138.1763
1827.152874 86.875 -137.9663
1840.393177 86.931 -137.7586
1853.729425 86.987 -137.5540
1867.162312 87.045 -137.3533
1880.692540 87.104 -137.1573
1894.320813 87.165 -136.9667
1908.047843 87.227 -136.7817
1921.874344 87.291 -136.6027
1935.801038 87.356 -136.4299
1949.828650 87.423 -136.2635
1963.957912 87.491 -136.1039
1978.189561 87.561 -135.9516
1992.524338 87.632 -135.8072
2006.962991 87.704 -135.6715
2021.506272 87.778 -135.5455
2036.154940 87.853 -135.4300
2050.909758 87.930 -135.3257
2065.771495 88.008 -135.2335
2080.740927 88.087 -135.1541
2095.818833 88.167 -135.0885
2111.006001 88.249 -135.0375
2126.303220 88.332 -135.0017
2141.711290 88.416 -134.9815
2157.231013 88.500 -134.9774
2172.863198 88.586 -134.9898
2188.608660 88.672 -135.0193
2204.468221 88.760 -135.0667
2220.442706 88.848 -135.1330
2236.532950 88.936 -135.2191
2252.739789 89.025 -135.3262
2269.064070 89.114 -135.4550
2285.506644 89.203 -135.6064
2302.068367 89.292 -135.7812
2318.750104 89.380 -135.9798
2335.552723 89.468 -136.2030
2352.477101 89.556 -136.4510
2369.524119 89.642 -136.7243
2386.694668 89.728 -137.0233
2403.989641 89.812 -137.3485
2421.409941 89.894 -137.7004
2438.956476 89.974 -138.0793
2456.630160 90.053 -138.4851
2474.431915 90.129 -138.9172
2492.362668 90.202 -139.3749
2510.423356 90.272 -139.8574
2528.614918 90.338 -140.3639
2546.938304 90.401 -140.8936
2565.394469 90.459 -141.4456
2583.984375 90.514 -142.0191
2602.708991 90.564 -142.6128
2621.569293 90.609 -143.2252
2640.566265 90.649 -143.8546
2659.700897 90.684 -144.4988
2678.974186 90.714 -145.1560
2698.387137 90.738 -145.8243
2717.940763 90.756 -146.5016
2737.636082 90.768 -147.1859
2757.474121 90.774 -147.8751
2777.455915 90.774 -148.5667
2797.582506 90.767 -149.2583
2817.854942 90.755 -149.9473
2838.274281 90.736 -150.6309
2858.841586 90.712 -151.3062
2879.557931 90.681 -151.9706
2900.424394 90.644 -152.6212
2921.442065 90.601 -153.2556
2942.612039 90.553 -153.8710
2963.935418 90.499 -154.4647
2985.413316 90.440 -155.0342
3007.046852 90.376 -155.5771
3028.837153 90.307 -156.0914
3050.785356 90.234 -156.5751
3072.892604 90.157 -157.0266
3095.160050 90.076 -157.4440
3117.588856 89.991 -157.8257
3140.180190 89.904 -158.1703
3162.935230 89.814 -158.4766
3185.855163 89.721 -158.7436
3208.941182 89.627 -158.9700
3232.194493 89.532 -159.1549
3255.616307 89.436 -159.2973
3279.207844 89.340 -159.3970
3302.970336 89.244 -159.4545
3326.905021 89.149 -159.4713
3351.013146 89.056 -159.4495
3375.295969 88.965 -159.3920
3399.754755 88.876 -159.3021
3424.390779 88.789 -159.1833
3449.205326 88.706 -159.0393
3474.199690 88.625 -158.8733
3499.375173 88.546 -158.6881
3524.733088 88.470 -158.4858
3550.274757 88.395 -158.2679
3576.001511 88.323 -158.0354
3601.914692 88.252 -157.7895
3628.015651 88.183 -157.5331
3654.305748 88.115 -157.2720
3680.786354 88.049 -157.0182
3707.458849 87.984 -156.7943
3734.324624 87.920 -156.6400
3761.385080 87.855 -156.6226
3788.641627 87.789 -156.8481
3816.095686 87.717 -157.4716
3843.748688 87.633 -158.6951
3871.602076 87.534 -160.7317
3899.657300 87.420 -163.7153
3927.915825 87.310 -167.5661
3956.379122 87.234 -171.8695
3985.048676 87.218 -175.9242
4013.925981 87.250 -179.0923
4043.012544 87.299 178.8240
4072.309879 87.339 177.6311
4101.819515 87.363 177.0462
4131.542990 87.373 176.8374
4161.481854 87.374 176.8477
4191.637667 87.370 176.9804
4222.012001 87.366 177.1785
4252.606441 87.364 177.4095
4283.422580 87.364 177.6552
4314.462026 87.369 177.9051
4345.726396 87.377 178.1537
4377.217321 87.391 178.3984
4408.936442 87.409 178.6384
4440.885413 87.433 178.8734
4473.065899 87.463 179.1028
4505.479579 87.499 179.3235
4538.128141 87.544 179.5302
4571.013288 87.596 179.7147
4604.136735 87.658 179.8667
4637.500207 87.729 179.9745
4671.105446 87.808 -179.9739
4704.954201 87.895 -179.9904
4739.048239 87.988 179.9141
4773.389336 88.087 179.7296
4807.979283 88.190 179.4474
4842.819883 88.294 179.0604
4877.912952 88.397 178.5627
4913.260320 88.497 177.9503
4948.863830 88.592 177.2203
4984.725337 88.678 176.3724
5020.846712 88.751 175.4092
5057.229836 88.810 174.3374
5093.876609 88.850 173.1685
5130.788938 88.868 171.9194
5167.968750 88.860 170.6122
5205.417982 88.824 169.2752
5243.138586 88.758 167.9420
5281.132530 88.662 166.6511
5319.401793 88.535 165.4442
5357.948371 88.380 164.3633
5396.774274 88.200 163.4475
5435.881525 88.001 162.7292
5475.272163 87.790 162.2300
5514.948243 87.574 161.9593
5554.911831 87.361 161.9119
5595.165012 87.157 162.0700
5635.709884 86.968 162.4051
5676.548561 86.798 162.8818
5717.683172 86.650 163.4629
5759.115861 86.523 164.1124
5800.848789 86.417 164.7994
5842.884130 86.331 165.4995
5885.224077 86.260 166.1958
5927.870837 86.204 166.8782
5970.826633 86.159 167.5426
6014.093704 86.124 168.1887
6057.674306 86.098 168.8191
6101.570711 86.078 169.4381
6145.785208 86.065 170.0506
6190.320101 86.059 170.6613
6235.177712 86.058 171.2745
6280.360380 86.065 171.8939
6325.870460 86.080 172.5215
6371.710325 86.103 173.1584
6417.882365 86.135 173.8038
6464.388986 86.178 174.4557
6511.232613 86.231 175.1104
6558.415689 86.297 175.7631
6605.940673 86.375 176.4083
6653.810042 86.468 177.0388
6702.026292 86.574 177.6464
6750.591937 86.696 178.2216
6799.509509 86.835 178.7535
6848.781558 86.990 179.2295
6898.410653 87.162 179.6352
6948.399380 87.353 179.9539
6998.750346 87.561 -179.8338
7049.466176 87.788 -179.7501
7100.549514 88.031 -179.8199
7152.003023 88.291 179.9289
7203.829385 88.564 179.4668
7256.031302 88.847 178.7645
7308.611496 89.134 177.7945
7361.572708 89.421 176.5337
7414.917698 89.698 174.9658
7468.649249 89.958 173.0832
7522.770160 90.192 170.8900
7577.283253 90.390 168.4032
7632.191371 90.543 165.6543
7687.497376 90.643 162.6887
7743.204151 90.683 159.5650
7799.314600 90.658 156.3518
7855.831649 90.565 153.1238
7912.758244 90.406 149.9571
7970.097352 90.181 146.9241
8027.851962 89.898 144.0897
8086.025087 89.561 141.5085
8144.619758 89.179 139.2231
8203.639030 88.760 137.2635
8263.085980 88.313 135.6480
8322.963708 87.846 134.3845
8383.275334 87.366 133.4722
8444.024002 86.881 132.9034
8505.212881 86.396 132.6651
8566.845160 85.918 132.7404
8628.924051 85.451 133.1096
8691.452792 84.998 133.7510
8754.434642 84.563 134.6423
8817.872884 84.148 135.7604
8881.770826 83.756 137.0824
8946.131799 83.388 138.5869
9010.959157 83.044 140.2537
9076.256282 82.727 142.0643
9142.026576 82.435 144.0013
9208.273470 82.171 146.0486
9275.000415 81.932 148.1917
9342.210891 81.721 150.4178
9409.908403 81.536 152.7156
9478.096478 81.378 155.0748
9546.778672 81.246 157.4854
9615.958566 81.141 159.9373
9685.639765 81.064 162.4192
9755.825904 81.014 164.9200
9826.520640 80.990 167.4301
9897.727659 80.994 169.9427
9969.450674 81.024 172.4519
10041.693423 81.083 174.9485
10114.459673 81.169 177.4171
10187.753217 81.284 179.8367
10261.577877 81.428 -177.8167
10335.937500 81.599 -175.5664
10410.835964 81.796 -173.4333
10486.277173 82.016 -171.4366
10562.265060 82.257 -169.5940
10638.803587 82.516 -167.9233
10715.896743 82.791 -166.4416
10793.548548 83.076 -165.1647
10871.763050 83.366 -164.1044
10950.544327 83.656 -163.2650
11029.896485 83.940 -162.6409
11109.823662 84.210 -162.2156
11190.330024 84.462 -161.9613
11271.419768 84.692 -161.8398
11353.097122 84.895 -161.8039
11435.366344 85.070 -161.7996
11518.231722 85.219 -161.7697
11601.697577 85.345 -161.6581
11685.768261 85.453 -161.4138
11770.448155 85.551 -160.9961
11855.741674 85.648 -160.3777
11941.653265 85.755 -159.5489
12028.187408 85.883 -158.5183
12115.348612 86.044 -157.3142
12203.141422 86.247 -155.9850
12291.570415 86.501 -154.5996
12380.640201 86.813 -153.2467
12470.355424 87.184 -152.0320
12560.720760 87.613 -151.0720
12651.740920 88.091 -150.4847
12743.420650 88.605 -150.3770
12835.764729 89.136 -150.8309
12928.777972 89.662 -151.8925
13022.465227 90.161 -153.5637
13116.831378 90.613 -155.8017
13211.881345 90.999 -158.5241
13307.620084 91.308 -161.6211
13404.052584 91.534 -164.9711
13501.183875 91.679 -168.4588
13599.019019 91.748 -171.9894
13697.563116 91.749 -175.4976
13796.821305 91.691 -178.9478
13896.798760 91.579 177.6730
13997.500692 91.417 174.3669
14098.932352 91.204 171.1381
14201.099028 90.939 168.0021
14304.006046 90.618 164.9921
14407.658770 90.237 162.1605
14512.062604 89.794 159.5757
14617.222992 89.293 157.3156
14723.145416 88.737 155.4575
14829.835397 88.135 154.0701
14937.298497 87.498 153.2063
15045.540320 86.842 152.8990
15154.566507 86.179 153.1586
15264.382743 85.526 153.9706
15374.994752 84.898 155.2948
15486.408302 84.309 157.0649
15598.629201 83.769 159.1918
15711.663298 83.287 161.5697
15825.516487 82.864 164.0876
15940.194703 82.497 166.6470
16055.703925 82.175 169.1866
16172.050174 81.886 171.7072
16289.239516 81.621 174.2808
16407.278061 81.380 177.0217
16526.171961 81.173 -179.9743
16645.927415 81.023 -176.6875
16766.550667 80.952 -173.1903
16888.048005 80.982 -169.6356
17010.425762 81.124 -166.2465
17133.690320 81.379 -163.3083
17257.848103 81.730 -161.1376
17382.905584 82.136 -160.0149
17508.869284 82.539 -160.1080
17635.745768 82.873 -161.4248
17763.541652 83.072 -163.8071
17892.263597 83.083 -166.9531
18021.918315 82.867 -170.4576
18152.512564 82.407 -173.8687
18284.053153 81.706 -176.7525
18416.546939 80.786 -178.7578
18550.000830 79.682 -179.6759
18684.421783 78.435 -179.4947
18819.816805 77.082 -178.4082
18956.192956 75.648 -176.7247
19093.557344 74.143 -174.7116
19231.917131 72.565 -172.5063
19371.279531 70.914 -170.1427
19511.651807 69.209 -167.6335
19653.041280 67.523 -165.0745
19795.455318 66.040 -162.7755
19938.901348 65.113 -161.3316
