* Measurement data measured by REW V5.40 beta 98
* Source: Микрофон (HiBy Digital D1), MICROPHONE (Общая громкость), R, volume: 0,250
* Format: 256k Log Swept Sine, 1 sweep at -15,0 dBFS with no timing reference
* Dated: 03.10.2025 15:59:09
* REW Settings:
*  C-weighting compensation: Off
*  Target level: 75.0 dB
* Note: 
* Measurement: LCP300_MX500
* Smoothing: 1/12 octave
* Frequency Step: 96 ppo
* Start Frequency: 0.36621094 Hz
*
* Freq(Hz) SPL(dB) Phase(degrees)
0.366211 37.983 169.4805
0.368865 37.976 169.4750
0.371538 37.967 169.4667
0.374230 37.955 169.4562
0.376942 37.941 169.4439
0.379673 37.926 169.4302
0.382424 37.911 169.4153
0.385196 37.895 169.3994
0.387987 37.879 169.3825
0.390798 37.863 169.3647
0.393630 37.847 169.3460
0.396483 37.830 169.3264
0.399356 37.813 169.3059
0.402250 37.797 169.2845
0.405165 37.780 169.2623
0.408101 37.763 169.2391
0.411058 37.746 169.2151
0.414037 37.728 169.1901
0.417037 37.711 169.1643
0.420059 37.693 169.1375
0.423103 37.676 169.1099
0.426169 37.658 169.0813
0.429257 37.640 169.0519
0.432368 37.622 169.0215
0.435501 37.604 168.9902
0.438656 37.586 168.9580
0.441835 37.567 168.9249
0.445037 37.549 168.8909
0.448262 37.530 168.8560
0.451510 37.511 168.8202
0.454782 37.492 168.7835
0.458077 37.473 168.7459
0.461397 37.454 168.7075
0.464740 37.434 168.6681
0.468108 37.415 168.6279
0.471500 37.395 168.5868
0.474917 37.375 168.5448
0.478358 37.356 168.5020
0.481825 37.335 168.4583
0.485316 37.315 168.4138
0.488833 37.295 168.3685
0.492375 37.274 168.3224
0.495943 37.254 168.2755
0.499537 37.233 168.2278
0.503157 37.212 168.1793
0.506803 37.191 168.1301
0.510475 37.169 168.0802
0.514175 37.148 168.0296
0.517900 37.126 167.9783
0.521653 37.105 167.9264
0.525434 37.083 167.8738
0.529241 37.061 167.8206
0.533076 37.038 167.7669
0.536939 37.016 167.7126
0.540830 36.993 167.6578
0.544749 36.971 167.6025
0.548696 36.948 167.5469
0.552673 36.925 167.4908
0.556677 36.902 167.4343
0.560711 36.878 167.3776
0.564774 36.855 167.3206
0.568867 36.831 167.2634
0.572989 36.807 167.2061
0.577141 36.783 167.1487
0.581324 36.759 167.0912
0.585536 36.734 167.0338
0.589779 36.710 166.9764
0.594053 36.685 166.9193
0.598358 36.660 166.8624
0.602694 36.635 166.8058
0.607061 36.610 166.7496
0.611460 36.584 166.6939
0.615891 36.558 166.6389
0.620354 36.533 166.5844
0.624849 36.506 166.5308
0.629377 36.480 166.4781
0.633938 36.454 166.4264
0.638532 36.427 166.3758
0.643159 36.400 166.3265
0.647819 36.373 166.2785
0.652514 36.346 166.2321
0.657242 36.319 166.1874
0.662005 36.291 166.1444
0.666802 36.263 166.1035
0.671634 36.235 166.0647
0.676501 36.207 166.0282
0.681403 36.179 165.9941
0.686341 36.150 165.9628
0.691314 36.121 165.9344
0.696324 36.092 165.9090
0.701370 36.063 165.8869
0.706452 36.033 165.8682
0.711571 36.003 165.8531
0.716728 35.972 165.8418
0.721921 35.940 165.8342
0.727153 35.906 165.8304
0.732422 35.872 165.8300
0.737729 35.835 165.8328
0.743075 35.796 165.8385
0.748460 35.755 165.8468
0.753883 35.712 165.8576
0.759346 35.668 165.8708
0.764849 35.623 165.8862
0.770391 35.576 165.9041
0.775974 35.528 165.9243
0.781597 35.479 165.9471
0.787261 35.429 165.9725
0.792966 35.377 166.0007
0.798712 35.325 166.0316
0.804500 35.271 166.0656
0.810329 35.216 166.1026
0.816201 35.161 166.1429
0.822116 35.104 166.1866
0.828073 35.046 166.2339
0.834074 34.988 166.2849
0.840118 34.928 166.3397
0.846206 34.868 166.3986
0.852338 34.807 166.4617
0.858514 34.745 166.5293
0.864735 34.682 166.6015
0.871001 34.619 166.6785
0.877313 34.555 166.7606
0.883670 34.490 166.8480
0.890074 34.425 166.9409
0.896524 34.359 167.0396
0.903020 34.293 167.1443
0.909564 34.226 167.2553
0.916155 34.159 167.3729
0.922794 34.092 167.4974
0.929481 34.025 167.6290
0.936216 33.957 167.7681
0.943000 33.890 167.9150
0.949834 33.822 168.0701
0.956717 33.755 168.2336
0.963649 33.688 168.4059
0.970632 33.621 168.5874
0.977666 33.554 168.7784
0.984750 33.488 168.9794
0.991886 33.422 169.1907
0.999074 33.357 169.4127
1.006314 33.293 169.6458
1.013606 33.229 169.8904
1.020951 33.167 170.1469
1.028349 33.106 170.4157
1.035801 33.046 170.6973
1.043307 32.987 170.9920
1.050867 32.929 171.3002
1.058482 32.873 171.6225
1.066152 32.819 171.9593
1.073878 32.767 172.3112
1.081660 32.716 172.6791
1.089498 32.667 173.0637
1.097393 32.619 173.4664
1.105345 32.573 173.8884
1.113355 32.528 174.3313
1.121423 32.483 174.7961
1.129549 32.440 175.2838
1.137734 32.397 175.7950
1.145979 32.354 176.3301
1.154283 32.312 176.8892
1.162647 32.271 177.4724
1.171072 32.231 178.0795
1.179558 32.191 178.7103
1.188106 32.152 179.3644
1.196715 32.114 -179.9586
1.205387 32.077 -179.2593
1.214122 32.041 -178.5384
1.222920 32.007 -177.7965
1.231782 31.973 -177.0346
1.240708 31.941 -176.2537
1.249699 31.910 -175.4549
1.258754 31.880 -174.6394
1.267876 31.852 -173.8087
1.277063 31.826 -172.9642
1.286318 31.802 -172.1075
1.295639 31.779 -171.2402
1.305027 31.758 -170.3643
1.314484 31.740 -169.4817
1.324009 31.723 -168.5942
1.333604 31.709 -167.7040
1.343268 31.698 -166.8133
1.353002 31.689 -165.9242
1.362806 31.683 -165.0390
1.372681 31.679 -164.1599
1.382628 31.679 -163.2891
1.392647 31.682 -162.4289
1.402739 31.688 -161.5813
1.412904 31.697 -160.7483
1.423142 31.710 -159.9317
1.433455 31.728 -159.1326
1.443843 31.749 -158.3518
1.454305 31.775 -157.5894
1.464844 31.806 -156.8443
1.475459 31.843 -156.1153
1.486150 31.885 -155.4009
1.496920 31.933 -154.7002
1.507767 31.987 -154.0127
1.518693 32.047 -153.3386
1.529698 32.112 -152.6785
1.540783 32.184 -152.0334
1.551948 32.261 -151.4041
1.563194 32.343 -150.7917
1.574521 32.430 -150.1972
1.585931 32.521 -149.6215
1.597423 32.617 -149.0654
1.608999 32.717 -148.5298
1.620658 32.820 -148.0155
1.632402 32.927 -147.5230
1.644232 33.036 -147.0529
1.656146 33.148 -146.6059
1.668147 33.262 -146.1823
1.680235 33.377 -145.7825
1.692411 33.493 -145.4070
1.704675 33.610 -145.0561
1.717028 33.728 -144.7299
1.729470 33.844 -144.4290
1.742003 33.960 -144.1533
1.754626 34.075 -143.9031
1.767341 34.188 -143.6786
1.780147 34.298 -143.4800
1.793047 34.406 -143.3073
1.806040 34.511 -143.1606
1.819128 34.614 -143.0396
1.832310 34.714 -142.9442
1.845587 34.813 -142.8739
1.858961 34.911 -142.8283
1.872432 35.008 -142.8067
1.886001 35.105 -142.8084
1.899667 35.201 -142.8327
1.913433 35.298 -142.8789
1.927299 35.394 -142.9461
1.941265 35.491 -143.0337
1.955332 35.587 -143.1407
1.969501 35.683 -143.2667
1.983773 35.779 -143.4108
1.998148 35.874 -143.5723
2.012627 35.968 -143.7505
2.027212 36.061 -143.9450
2.041902 36.154 -144.1550
2.056698 36.245 -144.3801
2.071602 36.334 -144.6198
2.086614 36.423 -144.8737
2.101734 36.509 -145.1415
2.116964 36.594 -145.4231
2.132304 36.676 -145.7184
2.147756 36.757 -146.0278
2.163320 36.835 -146.3519
2.178996 36.910 -146.6918
2.194786 36.983 -147.0488
2.210690 37.054 -147.4248
2.226710 37.122 -147.8212
2.242845 37.188 -148.2391
2.259098 37.252 -148.6786
2.275468 37.313 -149.1394
2.291957 37.372 -149.6208
2.308566 37.428 -150.1217
2.325295 37.482 -150.6407
2.342145 37.534 -151.1767
2.359117 37.584 -151.7282
2.376212 37.631 -152.2939
2.393431 37.676 -152.8724
2.410775 37.718 -153.4625
2.428244 37.759 -154.0630
2.445840 37.797 -154.6728
2.463564 37.832 -155.2910
2.481416 37.865 -155.9171
2.499397 37.896 -156.5508
2.517509 37.924 -157.1925
2.535752 37.950 -157.8436
2.554127 37.974 -158.5063
2.572635 37.994 -159.1838
2.591277 38.013 -159.8794
2.610055 38.028 -160.5960
2.628968 38.040 -161.3354
2.648019 38.050 -162.0981
2.667208 38.056 -162.8838
2.686535 38.059 -163.6914
2.706003 38.059 -164.5196
2.725612 38.056 -165.3665
2.745363 38.050 -166.2302
2.765257 38.040 -167.1086
2.785295 38.028 -167.9996
2.805478 38.012 -168.9011
2.825808 37.992 -169.8114
2.846285 37.969 -170.7290
2.866910 37.943 -171.6532
2.887685 37.914 -172.5843
2.908611 37.881 -173.5242
2.929688 37.844 -174.4761
2.950917 37.804 -175.4449
2.972301 37.759 -176.4352
2.993839 37.712 -177.4507
3.015534 37.660 -178.4940
3.037386 37.604 -179.5657
3.059396 37.544 179.3345
3.081565 37.480 178.2080
3.103896 37.412 177.0567
3.126388 37.339 175.8830
3.149043 37.261 174.6898
3.171862 37.178 173.4797
3.194847 37.091 172.2553
3.217998 36.998 171.0186
3.241317 36.900 169.7705
3.264805 36.797 168.5099
3.288463 36.689 167.2335
3.312293 36.576 165.9356
3.336295 36.456 164.6090
3.360471 36.332 163.2475
3.384822 36.202 161.8459
3.409350 36.066 160.4016
3.434056 35.924 158.9135
3.458940 35.776 157.3824
3.484005 35.621 155.8102
3.509252 35.459 154.1999
3.534681 35.290 152.5553
3.560295 35.114 150.8801
3.586094 34.929 149.1776
3.612081 34.737 147.4493
3.638255 34.536 145.6938
3.664620 34.326 143.9057
3.691175 34.107 142.0756
3.717923 33.880 140.1920
3.744864 33.643 138.2439
3.772001 33.397 136.2221
3.799335 33.142 134.1201
3.826866 32.877 131.9339
3.854597 32.603 129.6623
3.882529 32.320 127.3061
3.910664 32.027 124.8680
3.939002 31.724 122.3509
3.967546 31.409 119.7567
3.996296 31.083 117.0830
4.025255 30.743 114.3205
4.054423 30.389 111.4510
4.083804 30.018 108.4487
4.113396 29.631 105.2845
4.143204 29.230 101.9295
4.173227 28.817 98.3580
4.203468 28.397 94.5494
4.233928 27.974 90.4894
4.264609 27.555 86.1704
4.295512 27.146 81.5906
4.326639 26.753 76.7497
4.357992 26.379 71.6423
4.389572 26.029 66.2478
4.421380 25.704 60.5248
4.453419 25.404 54.4153
4.485691 25.129 47.8625
4.518196 24.879 40.8335
4.550936 24.657 33.3398
4.583914 24.464 25.4508
4.617131 24.305 17.2910
4.650589 24.184 9.0188
4.684289 24.106 0.7882
4.718233 24.076 -7.2910
4.752424 24.097 -15.1722
4.786862 24.171 -22.8647
4.821549 24.299 -30.3976
4.856488 24.478 -37.7816
4.891680 24.700 -44.9953
4.927127 24.957 -51.9956
4.962831 25.239 -58.7378
4.998794 25.539 -65.1958
5.035017 25.847 -71.3741
5.071503 26.157 -77.3099
5.108253 26.466 -83.0664
5.145270 26.773 -88.7159
5.182555 27.078 -94.3188
5.220110 27.383 -99.9027
5.257937 27.690 -105.4609
5.296038 27.998 -110.9650
5.334415 28.308 -116.3823
5.373071 28.621 -121.6911
5.412006 28.935 -126.8890
5.451224 29.251 -131.9944
5.490725 29.569 -137.0397
5.530514 29.889 -142.0570
5.570590 30.210 -147.0620
5.610957 30.532 -152.0456
5.651616 30.855 -156.9808
5.692570 31.178 -161.8350
5.733821 31.500 -166.5836
5.775370 31.820 -171.2181
5.817221 32.139 -175.7473
5.859375 32.455 179.8071
5.901834 32.769 175.4215
5.944602 33.079 171.0838
5.987679 33.386 166.7990
6.031068 33.687 162.5844
6.074771 33.983 158.4600
6.118792 34.270 154.4392
6.163131 34.549 150.5225
6.207792 34.819 146.6973
6.252776 35.078 142.9430
6.298086 35.327 139.2411
6.343725 35.565 135.5851
6.389694 35.792 131.9814
6.435996 36.006 128.4438
6.482634 36.207 124.9851
6.529610 36.394 121.6104
6.576926 36.566 118.3134
6.624585 36.724 115.0792
6.672590 36.866 111.8920
6.720942 36.992 108.7450
6.769645 37.101 105.6427
6.818700 37.193 102.5974
6.868111 37.268 99.6222
6.917881 37.324 96.7239
6.968010 37.361 93.9000
7.018504 37.378 91.1403
7.069362 37.376 88.4355
7.120590 37.352 85.7852
7.172189 37.307 83.1980
7.224161 37.240 80.6892
7.276511 37.150 78.2737
7.329239 37.035 75.9607
7.382350 36.896 73.7522
7.435845 36.731 71.6474
7.489729 36.541 69.6501
7.544002 36.323 67.7729
7.598669 36.077 66.0365
7.653732 35.802 64.4672
7.709194 35.497 63.0917
7.765058 35.162 61.9340
7.821327 34.797 61.0174
7.878004 34.405 60.3684
7.935091 33.990 60.0215
7.992592 33.555 60.0215
8.050510 33.103 60.4238
8.108847 32.639 61.2908
8.167607 32.171 62.6836
8.226793 31.712 64.6526
8.286408 31.281 67.2283
8.346454 30.902 70.4128
8.406936 30.599 74.1721
8.467856 30.389 78.4288
8.529218 30.282 83.0541
8.591024 30.278 87.8713
8.653278 30.371 92.6788
8.715983 30.549 97.2882
8.779143 30.802 101.5568
8.842760 31.119 105.4025
8.906839 31.486 108.8002
8.971381 31.888 111.7663
9.036392 32.311 114.3423
9.101873 32.742 116.5792
9.167829 33.172 118.5266
9.234263 33.597 120.2279
9.301178 34.016 121.7202
9.368578 34.431 123.0346
9.436467 34.842 124.1969
9.504847 35.252 125.2257
9.573723 35.661 126.1312
9.643099 36.069 126.9152
9.712976 36.477 127.5719
9.783361 36.884 128.0927
9.854255 37.289 128.4694
9.925663 37.692 128.6967
9.997588 38.090 128.7703
10.070035 38.481 128.6850
10.143007 38.861 128.4346
10.216507 39.228 128.0155
10.290540 39.581 127.4291
10.365109 39.917 126.6819
10.440219 40.237 125.7833
10.515873 40.541 124.7423
10.592076 40.828 123.5681
10.668830 41.096 122.2710
10.746141 41.341 120.8650
10.824012 41.560 119.3682
10.902447 41.746 117.7997
10.981451 41.897 116.1776
11.061027 42.008 114.5185
11.141180 42.079 112.8428
11.221913 42.112 111.1768
11.303232 42.107 109.5500
11.385140 42.065 107.9915
11.467641 41.988 106.5309
11.550741 41.876 105.2042
11.634442 41.728 104.0564
11.718750 41.547 103.1383
11.803669 41.332 102.5029
11.889203 41.089 102.2057
11.975357 40.824 102.3076
12.062136 40.547 102.8711
12.149543 40.272 103.9496
12.237583 40.019 105.5728
12.326262 39.813 107.7299
12.415583 39.686 110.3576
12.505552 39.659 113.3329
12.596172 39.748 116.4768
12.687449 39.949 119.5738
12.779387 40.253 122.4122
12.871992 40.640 124.8262
12.965268 41.086 126.7156
13.059220 41.567 128.0395
13.153852 42.060 128.8035
13.249170 42.548 129.0466
13.345179 43.018 128.8278
13.441884 43.461 128.2134
13.539289 43.871 127.2681
13.637401 44.244 126.0515
13.736223 44.574 124.6201
13.835761 44.861 123.0264
13.936021 45.102 121.3173
14.037007 45.298 119.5329
14.138725 45.453 117.7110
14.241180 45.571 115.8876
14.344377 45.654 114.0943
14.448323 45.708 112.3583
14.553021 45.734 110.7047
14.658478 45.736 109.1561
14.764700 45.716 107.7307
14.871691 45.678 106.4415
14.979457 45.625 105.2967
15.088005 45.562 104.2999
15.197339 45.494 103.4484
15.307465 45.425 102.7327
15.418389 45.361 102.1390
15.530117 45.304 101.6501
15.642655 45.254 101.2466
15.756008 45.212 100.9086
15.870182 45.176 100.6198
15.985184 45.145 100.3691
16.101019 45.117 100.1515
16.217694 45.092 99.9691
16.335214 45.068 99.8318
16.453586 45.043 99.7561
16.572815 45.018 99.7625
16.692909 44.993 99.8727
16.813872 44.973 100.1068
16.935713 44.962 100.4785
17.058436 44.967 100.9894
17.182048 45.000 101.6260
17.306556 45.066 102.3570
17.431967 45.174 103.1329
17.558286 45.326 103.8889
17.685521 45.520 104.5535
17.813677 45.752 105.0562
17.942762 46.014 105.3358
18.072783 46.297 105.3485
18.203746 46.589 105.0712
18.335658 46.880 104.5002
18.468526 47.157 103.6509
18.602356 47.410 102.5541
18.737156 47.631 101.2518
18.872934 47.813 99.7949
19.009695 47.952 98.2415
19.147447 48.046 96.6543
19.286197 48.093 95.0995
19.425953 48.096 93.6474
19.566721 48.055 92.3695
19.708510 47.977 91.3371
19.851326 47.870 90.6180
19.995177 47.747 90.2687
20.140070 47.624 90.3265
20.286013 47.522 90.7979
20.433014 47.460 91.6461
20.581080 47.455 92.7864
20.730219 47.518 94.0896
20.880439 47.651 95.3985
21.031747 47.848 96.5559
21.184152 48.095 97.4323
21.337661 48.373 97.9433
21.492282 48.661 98.0571
21.648024 48.937 97.7877
21.804895 49.187 97.1841
21.962902 49.397 96.3200
22.122054 49.560 95.2831
22.282360 49.671 94.1685
22.443827 49.728 93.0733
22.606464 49.734 92.0909
22.770280 49.695 91.3061
22.935283 49.623 90.7867
23.101481 49.534 90.5739
23.268884 49.448 90.6719
23.437500 49.385 91.0390
23.607338 49.361 91.5885
23.778406 49.383 92.1994
23.950714 49.448 92.7404
24.124271 49.547 93.0981
24.299086 49.662 93.1989
24.475167 49.774 93.0217
24.652524 49.863 92.5964
24.831166 49.913 91.9954
25.011103 49.918 91.3204
25.192344 49.874 90.6881
25.374898 49.789 90.2153
25.558775 49.678 90.0003
25.743984 49.561 90.1034
25.930536 49.462 90.5262
26.118439 49.406 91.1993
26.307704 49.409 91.9882
26.498341 49.476 92.7212
26.690359 49.597 93.2351
26.883768 49.753 93.4157
27.078579 49.918 93.2217
27.274801 50.069 92.6824
27.472446 50.190 91.8820
27.671522 50.271 90.9363
27.872042 50.311 89.9695
28.074014 50.317 89.0941
28.277450 50.305 88.3928
28.482360 50.290 87.9041
28.688755 50.290 87.6165
28.896645 50.318 87.4737
29.106042 50.377 87.3922
29.316957 50.465 87.2884
29.529400 50.572 87.1031
29.743382 50.686 86.8157
29.958915 50.795 86.4449
30.176009 50.894 86.0369
30.394677 50.980 85.6483
30.614929 51.057 85.3286
30.836778 51.132 85.1065
31.060234 51.210 84.9851
31.285309 51.295 84.9451
31.512015 51.388 84.9559
31.740364 51.486 84.9897
31.970368 51.586 85.0332
32.202039 51.684 85.0908
32.435388 51.778 85.1801
32.670428 51.870 85.3202
32.907171 51.966 85.5185
33.145630 52.071 85.7608
33.385817 52.189 86.0093
33.627745 52.319 86.2105
33.871425 52.458 86.3099
34.116871 52.599 86.2686
34.364096 52.731 86.0747
34.613113 52.845 85.7462
34.863934 52.935 85.3258
35.116572 52.999 84.8705
35.371041 53.038 84.4400
35.627354 53.060 84.0841
35.885525 53.073 83.8335
36.145566 53.088 83.6938
36.407492 53.115 83.6429
36.671316 53.162 83.6349
36.937051 53.233 83.6076
37.204712 53.326 83.4963
37.474313 53.436 83.2482
37.745867 53.551 82.8357
38.019389 53.661 82.2648
38.294893 53.756 81.5753
38.572394 53.829 80.8340
38.851905 53.879 80.1208
39.133442 53.911 79.5100
39.417019 53.934 79.0505
39.702651 53.962 78.7502
39.990353 54.005 78.5725
40.280140 54.067 78.4496
40.572026 54.146 78.3085
40.866028 54.234 78.1015
41.162160 54.316 77.8246
41.460438 54.386 77.5169
41.760877 54.439 77.2417
42.063494 54.481 77.0580
42.368303 54.522 76.9911
42.675322 54.573 77.0170
42.984565 54.641 77.0672
43.296048 54.724 77.0569
43.609789 54.813 76.9208
43.925804 54.896 76.6392
44.244108 54.963 76.2422
44.564719 55.009 75.7892
44.887654 55.040 75.3365
45.212928 55.064 74.9066
45.540560 55.090 74.4764
45.870565 55.123 73.9916
46.202962 55.156 73.4011
46.537768 55.178 72.6967
46.875000 55.178 71.9336
47.214676 55.151 71.2214
47.556813 55.104 70.6870
47.901429 55.058 70.4219
48.248542 55.037 70.4369
48.598171 55.062 70.6472
48.950334 55.137 70.9067
49.305048 55.253 71.0758
49.662333 55.388 71.0820
50.022206 55.522 70.9376
50.384688 55.644 70.7113
50.749796 55.754 70.4808
51.117550 55.856 70.2927
51.487969 55.958 70.1514
51.861072 56.062 70.0364
52.236879 56.165 69.9317
52.615409 56.265 69.8433
52.996681 56.361 69.7913
53.380717 56.459 69.7829
53.767536 56.567 69.7879
54.157158 56.686 69.7403
54.549603 56.812 69.5674
54.944892 56.934 69.2287
55.343045 57.040 68.7361
55.744084 57.126 68.1437
56.148028 57.192 67.5175
56.554900 57.245 66.9047
56.964720 57.294 66.3220
57.377510 57.342 65.7626
57.793291 57.391 65.2130
58.212085 57.441 64.6642
58.633914 57.490 64.1144
59.058799 57.537 63.5701
59.486764 57.581 63.0491
59.917829 57.621 62.5838
60.352019 57.655 62.2138
60.789354 57.690 61.9667
61.229859 57.731 61.8384
61.673556 57.784 61.7886
62.120468 57.848 61.7594
62.570618 57.921 61.7022
63.024031 57.997 61.5945
63.480729 58.072 61.4365
63.940736 58.141 61.2391
64.404077 58.203 61.0143
64.870776 58.257 60.7744
65.340856 58.303 60.5309
65.814343 58.345 60.2919
66.291261 58.388 60.0559
66.771635 58.436 59.8112
67.255489 58.491 59.5415
67.742850 58.553 59.2354
68.233743 58.618 58.8922
68.728193 58.683 58.5230
69.226226 58.746 58.1465
69.727867 58.807 57.7808
70.233144 58.867 57.4350
70.742083 58.930 57.1020
71.254709 58.994 56.7609
71.771050 59.062 56.3873
72.291132 59.129 55.9657
72.814984 59.193 55.4942
73.342631 59.252 54.9821
73.874102 59.306 54.4439
74.409424 59.352 53.8971
74.948626 59.392 53.3608
75.491734 59.426 52.8520
76.038779 59.457 52.3795
76.589787 59.489 51.9407
77.144788 59.522 51.5259
77.703811 59.558 51.1272
78.266885 59.596 50.7433
78.834039 59.636 50.3765
79.405303 59.678 50.0252
79.980706 59.724 49.6829
80.560280 59.773 49.3448
81.144053 59.823 49.0121
81.732056 59.877 48.6839
82.324320 59.936 48.3450
82.920876 59.998 47.9686
83.521755 60.061 47.5364
84.126988 60.120 47.0541
84.736607 60.172 46.5455
85.350643 60.217 46.0347
85.969129 60.258 45.5359
86.592097 60.294 45.0560
87.219579 60.328 44.5991
87.851608 60.361 44.1646
88.488217 60.394 43.7448
89.129439 60.427 43.3283
89.775308 60.459 42.9059
90.425856 60.489 42.4747
91.081119 60.518 42.0353
91.741131 60.546 41.5886
92.405925 60.575 41.1339
93.075536 60.604 40.6720
93.750000 60.636 40.2072
94.429351 60.671 39.7452
95.113625 60.709 39.2901
95.802858 60.751 38.8415
96.497085 60.796 38.3934
97.196342 60.844 37.9373
97.900667 60.891 37.4682
98.610096 60.936 36.9869
99.324665 60.976 36.4995
100.044413 61.012 36.0144
100.769376 61.043 35.5384
101.499592 61.070 35.0715
102.235100 61.096 34.6056
102.975938 61.121 34.1268
103.722144 61.144 33.6221
104.473757 61.165 33.0849
105.230817 61.184 32.5166
105.993363 61.201 31.9255
106.761435 61.217 31.3230
107.535072 61.233 30.7206
108.314315 61.251 30.1280
109.099206 61.273 29.5509
109.889783 61.297 28.9894
110.686090 61.323 28.4420
111.488167 61.347 27.9099
112.296056 61.369 27.3970
113.109800 61.387 26.9039
113.929440 61.404 26.4271
114.755020 61.419 25.9603
115.586582 61.432 25.4969
116.424170 61.444 25.0332
117.267827 61.453 24.5676
118.117598 61.458 24.1009
118.973527 61.459 23.6345
119.835658 61.456 23.1689
120.704037 61.453 22.7036
121.578708 61.450 22.2375
122.459718 61.449 21.7672
123.347111 61.449 21.2852
124.240935 61.451 20.7830
125.141236 61.452 20.2564
126.048061 61.451 19.7066
126.961458 61.448 19.1412
127.881473 61.443 18.5742
128.808154 61.439 18.0189
129.741551 61.438 17.4788
130.681712 61.443 16.9450
131.628686 61.452 16.4053
132.582521 61.464 15.8536
133.543269 61.476 15.2939
134.510979 61.484 14.7352
135.485701 61.487 14.1857
136.467486 61.487 13.6494
137.456386 61.482 13.1279
138.452451 61.473 12.6232
139.455735 61.462 12.1362
140.466288 61.451 11.6651
141.484165 61.438 11.2065
142.509418 61.424 10.7586
143.542100 61.408 10.3204
144.582265 61.389 9.8911
145.629968 61.366 9.4686
146.685262 61.339 9.0516
147.748204 61.309 8.6401
148.818849 61.279 8.2355
149.897251 61.248 7.8381
150.983469 61.220 7.4460
152.077557 61.194 7.0557
153.179574 61.171 6.6654
154.289576 61.149 6.2752
155.407622 61.128 5.8865
156.533770 61.106 5.5004
157.668078 61.084 5.1174
158.810606 61.060 4.7366
159.961413 61.035 4.3562
161.120559 61.010 3.9750
162.288105 60.983 3.5928
163.464112 60.956 3.2104
164.648640 60.928 2.8297
165.841752 60.901 2.4512
167.043510 60.873 2.0729
168.253976 60.846 1.6909
169.473213 60.819 1.3030
170.701286 60.789 0.9099
171.938258 60.757 0.5144
173.184194 60.722 0.1188
174.439158 60.684 -0.2750
175.703216 60.641 -0.6642
176.976434 60.595 -1.0439
178.258878 60.546 -1.4078
179.550615 60.496 -1.7502
180.851713 60.446 -2.0676
182.162239 60.399 -2.3601
183.482262 60.356 -2.6304
184.811850 60.320 -2.8820
186.151073 60.290 -3.1198
187.500000 60.267 -3.3512
188.858702 60.248 -3.5863
190.227250 60.231 -3.8346
191.605715 60.213 -4.0969
192.994169 60.192 -4.3651
194.392685 60.168 -4.6294
195.801334 60.139 -4.8875
197.220191 60.108 -5.1433
198.649330 60.073 -5.4017
200.088825 60.035 -5.6640
201.538751 59.995 -5.9269
202.999184 59.955 -6.1842
204.470200 59.915 -6.4307
205.951875 59.875 -6.6638
207.444287 59.836 -6.8845
208.947514 59.796 -7.0965
210.461634 59.755 -7.3031
211.986726 59.714 -7.5051
213.522869 59.673 -7.7008
215.070144 59.632 -7.8880
216.628631 59.592 -8.0648
218.198411 59.553 -8.2300
219.779567 59.515 -8.3849
221.372180 59.477 -8.5350
222.976334 59.441 -8.6881
224.592112 59.405 -8.8508
226.219600 59.370 -9.0258
227.858880 59.335 -9.2120
229.510039 59.301 -9.4053
231.173164 59.266 -9.5988
232.848340 59.229 -9.7863
234.535655 59.192 -9.9634
236.235197 59.154 -10.1279
237.947054 59.114 -10.2780
239.671317 59.074 -10.4122
241.408074 59.032 -10.5297
243.157416 58.988 -10.6295
244.919435 58.942 -10.7122
246.694223 58.894 -10.7812
248.481871 58.844 -10.8422
250.282473 58.794 -10.8997
252.096123 58.745 -10.9552
253.922915 58.697 -11.0082
255.762945 58.652 -11.0590
257.616309 58.609 -11.1104
259.483103 58.567 -11.1659
261.363424 58.527 -11.2289
263.257372 58.489 -11.3018
265.165043 58.453 -11.3850
267.086538 58.419 -11.4767
269.021957 58.387 -11.5735
270.971401 58.356 -11.6725
272.934972 58.326 -11.7716
274.912771 58.297 -11.8695
276.904902 58.269 -11.9631
278.911469 58.241 -12.0482
280.932577 58.213 -12.1225
282.968330 58.185 -12.1862
285.018835 58.155 -12.2394
287.084199 58.124 -12.2809
289.164530 58.091 -12.3084
291.259935 58.057 -12.3203
293.370525 58.021 -12.3168
295.496408 57.985 -12.3000
297.637697 57.948 -12.2740
299.794503 57.910 -12.2439
301.966937 57.872 -12.2146
304.155114 57.833 -12.1897
306.359147 57.793 -12.1691
308.579152 57.752 -12.1497
310.815244 57.709 -12.1268
313.067539 57.666 -12.0962
315.336156 57.622 -12.0570
317.621211 57.578 -12.0138
319.922826 57.535 -11.9740
322.241118 57.494 -11.9429
324.576210 57.455 -11.9198
326.928223 57.420 -11.9003
329.297280 57.387 -11.8795
331.683504 57.359 -11.8545
334.087019 57.335 -11.8259
336.507952 57.315 -11.7953
338.946427 57.298 -11.7629
341.402572 57.283 -11.7279
343.876516 57.268 -11.6904
346.368387 57.253 -11.6521
348.878315 57.236 -11.6163
351.406431 57.219 -11.5870
353.952867 57.202 -11.5676
356.517756 57.187 -11.5577
359.101230 57.174 -11.5536
361.703426 57.165 -11.5514
364.324478 57.158 -11.5496
366.964523 57.152 -11.5482
369.623699 57.144 -11.5480
372.302145 57.135 -11.5503
375.000000 57.122 -11.5588
377.717405 57.107 -11.5800
380.454501 57.089 -11.6223
383.211431 57.068 -11.6953
385.988339 57.045 -11.8080
388.785369 57.017 -11.9669
391.602668 56.985 -12.1768
394.440383 56.945 -12.4396
397.298660 56.897 -12.7525
400.177650 56.838 -13.1033
403.077502 56.765 -13.4679
405.998368 56.675 -13.8116
408.940400 56.567 -14.0934
411.903750 56.445 -14.2721
414.888575 56.313 -14.3141
417.895028 56.178 -14.2003
420.923268 56.049 -13.9315
423.973452 55.933 -13.5270
427.045738 55.834 -13.0204
430.140287 55.754 -12.4507
433.257261 55.694 -11.8530
436.396822 55.651 -11.2542
439.559133 55.622 -10.6729
442.744360 55.603 -10.1194
445.952668 55.590 -9.5964
449.184225 55.581 -9.1023
452.439199 55.574 -8.6344
455.717760 55.569 -8.1892
459.020079 55.565 -7.7617
462.346327 55.562 -7.3461
465.696680 55.561 -6.9395
469.071310 55.559 -6.5438
472.470394 55.559 -6.1631
475.894109 55.558 -5.8007
479.342634 55.558 -5.4604
482.816148 55.558 -5.1480
486.314833 55.559 -4.8694
489.838871 55.561 -4.6287
493.388445 55.563 -4.4290
496.963741 55.563 -4.2717
500.564945 55.560 -4.1538
504.192245 55.554 -4.0638
507.845830 55.543 -3.9850
511.525890 55.530 -3.9053
515.232618 55.515 -3.8206
518.966206 55.500 -3.7291
522.726849 55.484 -3.6304
526.514743 55.468 -3.5272
530.330086 55.450 -3.4222
534.173076 55.433 -3.3159
538.043915 55.416 -3.2076
541.942803 55.401 -3.0965
545.869944 55.389 -2.9801
549.825542 55.380 -2.8546
553.809805 55.374 -2.7178
557.822939 55.370 -2.5718
561.865154 55.368 -2.4211
565.936660 55.368 -2.2706
570.037671 55.368 -2.1218
574.168399 55.367 -1.9752
578.329060 55.364 -1.8307
582.519870 55.359 -1.6866
586.741049 55.352 -1.5378
590.992817 55.344 -1.3785
595.275394 55.335 -1.2040
599.589005 55.324 -1.0111
603.933874 55.313 -0.7978
608.310228 55.299 -0.5643
612.718295 55.284 -0.3131
617.158304 55.268 -0.0471
621.630488 55.250 0.2309
626.135079 55.232 0.5186
630.672311 55.214 0.8123
635.242423 55.195 1.1060
639.845651 55.176 1.3951
644.482237 55.157 1.6790
649.152421 55.139 1.9596
653.856447 55.122 2.2372
658.594560 55.108 2.5086
663.367008 55.096 2.7695
668.174039 55.086 3.0182
673.015903 55.078 3.2563
677.892854 55.072 3.4877
682.805145 55.065 3.7162
687.753032 55.059 3.9436
692.736774 55.055 4.1695
697.756631 55.052 4.3928
702.812863 55.051 4.6115
707.905735 55.052 4.8220
713.035511 55.053 5.0220
718.202461 55.054 5.2107
723.406852 55.055 5.3923
728.648956 55.056 5.5806
733.929047 55.058 5.7910
739.247399 55.061 6.0260
744.604290 55.066 6.2754
750.000000 55.073 6.5291
755.434809 55.079 6.7821
760.909001 55.085 7.0323
766.422861 55.091 7.2782
771.976677 55.096 7.5184
777.570739 55.100 7.7531
783.205337 55.104 7.9827
788.880766 55.108 8.2090
794.597321 55.111 8.4365
800.355301 55.113 8.6721
806.155005 55.115 8.9225
811.996736 55.116 9.1919
817.880799 55.115 9.4784
823.807501 55.112 9.7725
829.777150 55.109 10.0627
835.790057 55.104 10.3431
841.846536 55.100 10.6132
847.946903 55.097 10.8740
854.091476 55.094 11.1263
860.280575 55.090 11.3734
866.514523 55.088 11.6196
872.793644 55.087 11.8690
879.118267 55.086 12.1230
885.488720 55.087 12.3791
891.905336 55.088 12.6329
898.368450 55.088 12.8835
904.878398 55.089 13.1367
911.435520 55.090 13.4017
918.040157 55.091 13.6814
924.692655 55.094 13.9703
931.393359 55.097 14.2606
938.142619 55.101 14.5491
944.940787 55.104 14.8370
951.788218 55.107 15.1259
958.685268 55.108 15.4156
965.632296 55.110 15.7050
972.629666 55.111 15.9928
979.677741 55.113 16.2809
986.776890 55.114 16.5729
993.927482 55.115 16.8715
1001.129891 55.115 17.1774
1008.384491 55.114 17.4888
1015.691660 55.113 17.8036
1023.051781 55.113 18.1235
1030.465236 55.113 18.4539
1037.932411 55.113 18.8003
1045.453698 55.113 19.1647
1053.029486 55.112 19.5458
1060.660172 55.109 19.9420
1068.346153 55.104 20.3536
1076.087829 55.099 20.7808
1083.885605 55.094 21.2211
1091.739887 55.091 21.6688
1099.651084 55.090 22.1152
1107.619609 55.092 22.5526
1115.645878 55.098 22.9771
1123.730308 55.107 23.3879
1131.873321 55.120 23.7847
1140.075341 55.136 24.1677
1148.336797 55.155 24.5381
1156.658119 55.179 24.8967
1165.039741 55.208 25.2434
1173.482099 55.242 25.5791
1181.985634 55.280 25.9067
1190.550789 55.322 26.2301
1199.178011 55.369 26.5504
1207.867749 55.418 26.8660
1216.620457 55.469 27.1744
1225.436590 55.521 27.4753
1234.316609 55.573 27.7704
1243.260976 55.622 28.0626
1252.270157 55.668 28.3540
1261.344623 55.709 28.6451
1270.484846 55.746 28.9358
1279.691303 55.779 29.2256
1288.964474 55.810 29.5135
1298.304842 55.840 29.7993
1307.712894 55.871 30.0844
1317.189120 55.904 30.3702
1326.734016 55.939 30.6585
1336.348077 55.978 30.9497
1346.031806 56.020 31.2432
1355.785708 56.064 31.5373
1365.610290 56.111 31.8300
1375.506065 56.159 32.1207
1385.473549 56.210 32.4099
1395.513261 56.261 32.6982
1405.625726 56.315 32.9850
1415.811469 56.370 33.2677
1426.071023 56.427 33.5424
1436.404921 56.486 33.8042
1446.813703 56.547 34.0485
1457.297912 56.610 34.2717
1467.858093 56.674 34.4720
1478.494798 56.740 34.6493
1489.208581 56.807 34.8041
1500.000000 56.875 34.9376
1510.869618 56.943 35.0519
1521.818002 57.013 35.1501
1532.845723 57.083 35.2363
1543.953355 57.154 35.3144
1555.141477 57.225 35.3870
1566.410674 57.296 35.4556
1577.761531 57.365 35.5201
1589.194642 57.434 35.5788
1600.710601 57.501 35.6295
1612.310010 57.567 35.6709
1623.993473 57.630 35.7023
1635.761599 57.692 35.7233
1647.615002 57.754 35.7317
1659.554299 57.816 35.7245
1671.580114 57.879 35.6990
1683.693072 57.943 35.6536
1695.893807 58.007 35.5887
1708.182952 58.071 35.5073
1720.561150 58.134 35.4125
1733.029045 58.195 35.3061
1745.587288 58.254 35.1890
1758.236533 58.310 35.0628
1770.977440 58.363 34.9301
1783.810673 58.413 34.7926
1796.736900 58.460 34.6513
1809.756796 58.506 34.5056
1822.871040 58.550 34.3548
1836.080315 58.592 34.1976
1849.385310 58.633 34.0324
1862.786718 58.671 33.8586
1876.285239 58.707 33.6762
1889.881575 58.739 33.4861
1903.576436 58.769 33.2895
1917.370535 58.795 33.0885
1931.264593 58.819 32.8861
1945.259332 58.841 32.6835
1959.355483 58.859 32.4805
1973.553781 58.873 32.2763
1987.854965 58.885 32.0716
2002.259781 58.893 31.8678
2016.768981 58.898 31.6666
2031.383320 58.901 31.4688
2046.103561 58.900 31.2744
2060.930471 58.895 31.0837
2075.864823 58.887 30.8992
2090.907395 58.876 30.7247
2106.058972 58.862 30.5636
2121.320344 58.844 30.4171
2136.692305 58.825 30.2845
2152.175658 58.804 30.1654
2167.771210 58.781 30.0609
2183.479774 58.755 29.9743
2199.302169 58.727 29.9091
2215.239219 58.697 29.8660
2231.291755 58.663 29.8440
2247.460615 58.626 29.8432
2263.746641 58.587 29.8652
2280.150683 58.545 29.9109
2296.673595 58.502 29.9798
2313.316238 58.459 30.0707
2330.079481 58.416 30.1850
2346.964198 58.372 30.3256
2363.971268 58.327 30.4944
2381.101578 58.281 30.6913
2398.356022 58.235 30.9158
2415.735498 58.188 31.1689
2433.240913 58.141 31.4532
2450.873180 58.094 31.7698
2468.633217 58.047 32.1191
2486.521951 58.003 32.5011
2504.540314 57.959 32.9153
2522.689246 57.918 33.3597
2540.969692 57.879 33.8318
2559.382606 57.842 34.3289
2577.928947 57.808 34.8496
2596.609683 57.777 35.3938
2615.425787 57.749 35.9596
2634.378241 57.724 36.5417
2653.468031 57.703 37.1338
2672.696154 57.683 37.7312
2692.063613 57.664 38.3326
2711.571415 57.643 38.9408
2731.220579 57.619 39.5659
2751.012130 57.591 40.2305
2770.947098 57.557 40.9698
2791.026522 57.521 41.8239
2811.251451 57.489 42.8219
2831.622938 57.468 43.9659
2852.142045 57.465 45.2279
2872.809842 57.486 46.5601
2893.627406 57.531 47.9127
2914.595823 57.597 49.2485
2935.716186 57.681 50.5480
2956.989596 57.779 51.8057
2978.417161 57.890 53.0245
3000.000000 58.013 54.2110
3021.739237 58.146 55.3702
3043.636005 58.292 56.5017
3065.691446 58.451 57.5975
3087.906710 58.624 58.6453
3110.282955 58.810 59.6320
3132.821347 59.010 60.5455
3155.523062 59.222 61.3772
3178.389283 59.447 62.1198
3201.421202 59.684 62.7642
3224.620020 59.931 63.2978
3247.986946 60.188 63.7066
3271.523198 60.450 63.9800
3295.230004 60.716 64.1130
3319.108599 60.983 64.1055
3343.160228 61.249 63.9587
3367.386145 61.511 63.6734
3391.787613 61.766 63.2524
3416.365904 62.014 62.7034
3441.122300 62.250 62.0380
3466.058091 62.476 61.2685
3491.174576 62.689 60.4062
3516.473066 62.889 59.4606
3541.954880 63.076 58.4401
3567.621345 63.249 57.3528
3593.473800 63.406 56.2089
3619.513592 63.548 55.0193
3645.742080 63.673 53.7951
3672.160630 63.782 52.5484
3698.770620 63.873 51.2937
3725.573436 63.949 50.0453
3752.570477 64.009 48.8142
3779.763150 64.055 47.6086
3807.152872 64.088 46.4363
3834.741071 64.108 45.3041
3862.529185 64.117 44.2187
3890.518664 64.114 43.1871
3918.710966 64.101 42.2147
3947.107561 64.079 41.3052
3975.709929 64.050 40.4611
4004.519563 64.015 39.6815
4033.537962 63.975 38.9630
4062.766641 63.931 38.3030
4092.207123 63.885 37.7005
4121.860942 63.836 37.1531
4151.729646 63.787 36.6578
4181.814790 63.738 36.2100
4212.117944 63.690 35.8052
4242.640687 63.644 35.4404
4273.384610 63.598 35.1138
4304.351317 63.555 34.8232
4335.542421 63.512 34.5662
4366.959549 63.472 34.3411
4398.604338 63.433 34.1487
4430.478438 63.397 33.9923
4462.583511 63.366 33.8751
4494.921231 63.341 33.7959
4527.493283 63.326 33.7473
4560.301365 63.323 33.7130
4593.347189 63.335 33.6672
4626.632476 63.362 33.5770
4660.158962 63.402 33.4068
4693.928395 63.453 33.1240
4727.942535 63.508 32.7058
4762.203156 63.563 32.1423
4796.712043 63.611 31.4373
4831.470996 63.647 30.6053
4866.481826 63.668 29.6654
4901.746360 63.671 28.6364
4937.266434 63.653 27.5343
4973.043902 63.613 26.3760
5009.080628 63.548 25.1816
5045.378492 63.456 23.9742
5081.939384 63.335 22.7802
5118.765212 63.182 21.6315
5155.857894 62.998 20.5698
5193.219366 62.781 19.6453
5230.851574 62.534 18.9104
5268.756481 62.263 18.4136
5306.936062 61.973 18.1948
5345.392309 61.675 18.2826
5384.127225 61.378 18.6930
5423.142830 61.093 19.4255
5462.441159 60.830 20.4598
5502.024259 60.599 21.7549
5541.894195 60.405 23.2552
5582.053045 60.253 24.9040
5622.502902 60.142 26.6533
5663.245876 60.074 28.4673
5704.284090 60.049 30.3163
5745.619684 60.068 32.1676
5787.254813 60.131 33.9810
5829.191647 60.237 35.7112
5871.432373 60.383 37.3092
5913.979192 60.563 38.7278
5956.834323 60.772 39.9331
6000.000000 61.002 40.9138
6043.478473 61.249 41.6774
6087.272010 61.508 42.2412
6131.382892 61.780 42.6201
6175.813420 62.064 42.8166
6220.565910 62.362 42.8166
6265.642695 62.673 42.5928
6311.046124 62.995 42.1114
6356.778566 63.322 41.3416
6402.842404 63.648 40.2616
6449.240040 63.964 38.8615
6495.973891 64.262 37.1454
6543.046396 64.531 35.1330
6590.460007 64.763 32.8608
6638.217197 64.954 30.3797
6686.320456 65.100 27.7476
6734.772290 65.201 25.0198
6783.575226 65.258 22.2428
6832.731809 65.274 19.4530
6882.244600 65.252 16.6782
6932.116181 65.194 13.9404
6982.349153 65.103 11.2601
7032.946133 64.982 8.6570
7083.909760 64.834 6.1495
7135.242690 64.664 3.7526
7186.947600 64.474 1.4773
7239.027185 64.270 -0.6689
7291.484160 64.055 -2.6810
7344.321260 63.832 -4.5572
7397.541239 63.606 -6.2969
7451.146872 63.379 -7.9005
7505.140954 63.153 -9.3685
7559.526299 62.929 -10.7002
7614.305743 62.709 -11.8928
7669.482141 62.495 -12.9442
7725.058371 62.288 -13.8579
7781.037328 62.091 -14.6484
7837.421932 61.904 -15.3418
7894.215122 61.728 -15.9738
7951.419859 61.561 -16.5850
8009.039125 61.402 -17.2163
8067.075924 61.249 -17.9088
8125.533282 61.100 -18.7025
8184.414245 60.952 -19.6320
8243.721885 60.803 -20.7230
8303.459292 60.649 -21.9914
8363.629581 60.486 -23.4426
8424.235888 60.312 -25.0717
8485.281374 60.122 -26.8649
8546.769221 59.913 -28.8022
8608.702634 59.681 -30.8585
8671.084842 59.423 -33.0031
8733.919097 59.138 -35.2013
8797.208675 58.823 -37.4167
8860.956876 58.479 -39.6152
8925.167022 58.104 -41.7694
8989.842461 57.698 -43.8604
9054.986566 57.260 -45.8756
9120.602731 56.790 -47.8020
9186.694378 56.287 -49.6182
9253.264952 55.749 -51.2903
9320.317925 55.176 -52.7717
9387.856790 54.568 -54.0088
9455.885071 53.928 -54.9460
9524.406312 53.261 -55.5334
9593.424086 52.576 -55.7301
9662.941992 51.885 -55.5083
9732.963653 51.201 -54.8552
9803.492719 50.537 -53.7760
9874.532869 49.907 -52.2980
9946.087805 49.326 -50.4784
10018.161257 48.810 -48.4176
10090.756983 48.370 -46.2710
10163.878768 48.008 -44.2393
10237.530423 47.718 -42.5278
10311.715789 47.478 -41.2926
10386.438732 47.258 -40.5984
10461.703149 47.027 -40.4127
10537.512962 46.761 -40.6345
10613.872125 46.442 -41.1411
10690.784618 46.065 -41.8290
10768.254450 45.627 -42.6399
10846.285661 45.127 -43.5618
10924.882318 44.562 -44.6088
11004.048518 43.928 -45.7784
11083.788390 43.229 -46.9794
11164.106090 42.492 -47.9034
11245.005805 41.803 -47.6882
11326.491752 41.351 -43.6062
11408.568180 41.403 -23.7166
11491.239368 42.110 38.4384
11574.509626 43.338 67.8453
11658.383294 44.799 72.6297
11742.864745 46.267 71.1527
11827.958384 47.628 67.4112
11913.668646 48.840 62.6611
12000.000000 49.902 57.4474
12086.956947 50.829 52.0659
12174.544019 51.647 46.6971
12262.765784 52.390 41.4451
12351.626840 53.089 36.3428
12441.131819 53.775 31.3505
12531.285389 54.470 26.3613
12622.092249 55.180 21.2211
12713.557132 55.900 15.7585
12805.684808 56.611 9.8220
12898.480079 57.289 3.3076
12991.947783 57.906 -3.8280
13086.092792 58.441 -11.5737
13180.920015 58.872 -19.8813
13276.434395 59.185 -28.6803
13372.640911 59.368 -37.8854
13469.544580 59.414 -47.3987
13567.150452 59.317 -57.1085
13665.463617 59.077 -66.8928
13764.489200 58.701 -76.6248
13864.232362 58.196 -86.1829
13964.698305 57.576 -95.4598
14065.892266 56.857 -104.3711
14167.819519 56.056 -112.8568
14270.485380 55.190 -120.8804
14373.895200 54.275 -128.4254
14478.054370 53.325 -135.4910
14582.968320 52.351 -142.0864
14688.642520 51.363 -148.2290
14795.082478 50.371 -153.9435
14902.293745 49.382 -159.2609
15010.281908 48.404 -164.2164
15119.052599 47.447 -168.8495
15228.611486 46.517 -173.2017
15338.964283 45.625 -177.3170
15450.116741 44.779 178.7562
15562.074656 43.989 174.9672
15674.843864 43.263 171.2698
15788.430244 42.605 167.6277
15902.839718 42.015 164.0085
16018.078250 41.488 160.3733
16134.151848 41.019 156.6725
16251.066563 40.600 152.8486
16368.828491 40.230 148.8377
16487.443769 39.907 144.5760
16606.918584 39.627 140.0134
16727.259161 39.392 135.1226
16848.471777 39.200 129.8912
16970.562748 39.055 124.3003
17093.538442 38.958 118.3098
17217.405268 38.911 111.8615
17342.169684 38.916 104.8855
17467.838194 38.975 97.3013
17594.417350 39.089 89.0182
17721.913751 39.263 79.9462
17850.334044 39.500 70.0133
17979.684923 39.796 59.1749
18109.973131 40.133 47.3980
18241.205462 40.488 34.6390
18373.388756 40.827 20.8470
18506.529905 41.116 5.9713
18640.635849 41.317 -10.0331
18775.713581 41.397 -27.1919
18911.770141 41.325 -45.4772
19048.812624 41.075 -64.7804
19186.848172 40.628 -84.8885
19325.883983 39.975 -105.5057
19465.927305 39.127 -126.3046
19606.985439 38.122 -146.7886
19749.065738 37.054 -165.7268
19892.175609 36.097 179.2570
20036.322514 35.510 170.8988
