* Measurement data measured by REW V5.20.9
* Source: Input device not selected, no input selected, L, volume: no control. Timing signal peak level -51,6 dBFS, measurement signal peak level -11,9 dBFS
* Format: 256k Log Swept Sine, 1 sweep at -12,0 dBFS using an acoustic timing reference
* Dated: 30.07.2024 14:20:01
* REW Settings:
*  C-weighting compensation: Off
*  Target level: 75.0 dB
* Note: Delay 0,1086 ms (37 mm, 1,47 in) using estimated IR delay relative to Acoustic reference on  R with no timing offset
* Measurement: stock
* Smoothing: 1/12 octave
* Frequency Step: 96 ppo
* Start Frequency: 20.187378 Hz
*
* Freq(Hz) SPL(dB) Phase(degrees)
20.187378 114.793 -129.4476
20.333664 114.805 -129.6486
20.481010 114.822 -129.9426
20.629424 114.843 -130.3038
20.778913 114.866 -130.7100
20.929486 114.890 -131.1451
21.081150 114.915 -131.5982
21.233912 114.940 -132.0621
21.387782 114.964 -132.5324
21.542767 114.988 -133.0057
21.698874 115.011 -133.4795
21.856113 115.034 -133.9521
22.014492 115.057 -134.4219
22.174018 115.079 -134.8880
22.334700 115.102 -135.3499
22.496546 115.124 -135.8077
22.659566 115.146 -136.2618
22.823766 115.168 -136.7133
22.989157 115.191 -137.1634
23.155745 115.212 -137.6134
23.323542 115.234 -138.0646
23.492554 115.255 -138.5180
23.662790 115.275 -138.9742
23.834261 115.294 -139.4335
24.006973 115.313 -139.8953
24.180938 115.330 -140.3591
24.356163 115.346 -140.8236
24.532658 115.361 -141.2877
24.710431 115.375 -141.7503
24.889493 115.389 -142.2101
25.069853 115.403 -142.6667
25.251519 115.416 -143.1196
25.434502 115.430 -143.5688
25.618811 115.444 -144.0148
25.804456 115.458 -144.4579
25.991445 115.472 -144.8987
26.179790 115.486 -145.3378
26.369500 115.499 -145.7754
26.560584 115.512 -146.2117
26.753053 115.525 -146.6467
26.946917 115.537 -147.0802
27.142185 115.548 -147.5121
27.338869 115.558 -147.9424
27.536977 115.567 -148.3712
27.736522 115.576 -148.7990
27.937512 115.585 -149.2263
28.139959 115.593 -149.6539
28.343872 115.601 -150.0822
28.549264 115.609 -150.5117
28.756143 115.617 -150.9425
28.964522 115.624 -151.3740
29.174411 115.632 -151.8054
29.385821 115.639 -152.2355
29.598763 115.645 -152.6630
29.813248 115.651 -153.0866
30.029287 115.656 -153.5056
30.246891 115.661 -153.9194
30.466073 115.666 -154.3285
30.686842 115.670 -154.7336
30.909212 115.674 -155.1361
31.133193 115.677 -155.5376
31.358797 115.680 -155.9394
31.586035 115.682 -156.3426
31.814921 115.683 -156.7478
32.045465 115.684 -157.1549
32.277680 115.684 -157.5632
32.511577 115.684 -157.9721
32.747169 115.683 -158.3805
32.984469 115.682 -158.7877
33.223488 115.682 -159.1934
33.464239 115.681 -159.5972
33.706735 115.681 -159.9993
33.950987 115.680 -160.3996
34.197010 115.680 -160.7977
34.444816 115.679 -161.1931
34.694417 115.677 -161.5847
34.945827 115.674 -161.9716
35.199059 115.671 -162.3531
35.454126 115.666 -162.7294
35.711041 115.661 -163.1013
35.969818 115.655 -163.4703
36.230470 115.649 -163.8387
36.493011 115.643 -164.2085
36.757455 115.637 -164.5811
37.023814 115.630 -164.9573
37.292104 115.623 -165.3366
37.562338 115.616 -165.7175
37.834530 115.608 -166.0982
38.108695 115.600 -166.4769
38.384846 115.592 -166.8520
38.662999 115.583 -167.2225
38.943167 115.574 -167.5883
39.225365 115.566 -167.9497
39.509608 115.556 -168.3072
39.795911 115.547 -168.6619
40.084289 115.537 -169.0149
40.374756 115.527 -169.3671
40.667328 115.516 -169.7191
40.962020 115.505 -170.0708
41.258848 115.493 -170.4213
41.557827 115.481 -170.7691
41.858972 115.469 -171.1123
42.162299 115.456 -171.4496
42.467824 115.444 -171.7810
42.775564 115.433 -172.1078
43.085533 115.421 -172.4326
43.397749 115.410 -172.7582
43.712227 115.398 -173.0865
44.028983 115.385 -173.4177
44.348036 115.372 -173.7505
44.669400 115.357 -174.0826
44.993093 115.342 -174.4115
45.319131 115.327 -174.7355
45.647532 115.312 -175.0534
45.978313 115.297 -175.3638
46.311491 115.281 -175.6652
46.647083 115.265 -175.9559
46.985107 115.248 -176.2357
47.325581 115.232 -176.5074
47.668521 115.215 -176.7773
48.013947 115.199 -177.0539
48.361876 115.183 -177.3457
48.712326 115.167 -177.6573
49.065315 115.150 -177.9871
49.420863 115.132 -178.3280
49.778987 115.112 -178.6700
50.139706 115.091 -179.0033
50.503039 115.071 -179.3223
50.869005 115.051 -179.6259
51.237623 115.032 -179.9168
51.608912 115.013 179.8010
51.982891 114.993 179.5235
52.359580 114.973 179.2480
52.739000 114.952 178.9725
53.121168 114.931 178.6960
53.506106 114.910 178.4181
53.893833 114.888 178.1390
54.284370 114.867 177.8603
54.677737 114.845 177.5840
55.073955 114.824 177.3118
55.473043 114.802 177.0446
55.875024 114.780 176.7820
56.279917 114.758 176.5233
56.687745 114.735 176.2678
57.098527 114.712 176.0151
57.512287 114.688 175.7649
57.929045 114.665 175.5168
58.348822 114.641 175.2698
58.771642 114.618 175.0227
59.197525 114.595 174.7748
59.626495 114.573 174.5261
60.058573 114.551 174.2774
60.493782 114.529 174.0298
60.932145 114.507 173.7840
61.373685 114.484 173.5403
61.818424 114.461 173.2990
62.266386 114.437 173.0602
62.717593 114.412 172.8246
63.172071 114.387 172.5928
63.629842 114.360 172.3654
64.090930 114.333 172.1428
64.555359 114.305 171.9250
65.023154 114.278 171.7117
65.494339 114.251 171.5021
65.968938 114.224 171.2948
66.446976 114.197 171.0888
66.928478 114.170 170.8832
67.413469 114.143 170.6779
67.901975 114.117 170.4728
68.394021 114.090 170.2684
68.889632 114.064 170.0650
69.388835 114.037 169.8631
69.891655 114.011 169.6631
70.398118 113.984 169.4654
70.908252 113.956 169.2698
71.422083 113.929 169.0764
71.939636 113.901 168.8852
72.460941 113.872 168.6967
72.986023 113.844 168.5109
73.514909 113.816 168.3281
74.047629 113.787 168.1478
74.584208 113.759 167.9697
75.124676 113.731 167.7938
75.669061 113.703 167.6197
76.217390 113.674 167.4476
76.769692 113.646 167.2774
77.325997 113.617 167.1091
77.886333 113.588 166.9425
78.450730 113.559 166.7776
79.019216 113.530 166.6144
79.591822 113.501 166.4534
80.168577 113.472 166.2946
80.749512 113.443 166.1379
81.334656 113.414 165.9830
81.924040 113.385 165.8299
82.517696 113.355 165.6790
83.115653 113.326 165.5311
83.717943 113.296 165.3869
84.324598 113.266 165.2470
84.935649 113.236 165.1111
85.551128 113.206 164.9784
86.171066 113.175 164.8474
86.795497 113.145 164.7170
87.424453 113.114 164.5869
88.057967 113.083 164.4571
88.696071 113.052 164.3277
89.338800 113.021 164.1986
89.986185 112.990 164.0696
90.638262 112.960 163.9413
91.295065 112.931 163.8149
91.956626 112.902 163.6914
92.622982 112.873 163.5710
93.294166 112.845 163.4535
93.970214 112.815 163.3391
94.651161 112.785 163.2274
95.337042 112.755 163.1175
96.027894 112.724 163.0082
96.723752 112.694 162.8993
97.424652 112.663 162.7916
98.130631 112.632 162.6870
98.841726 112.602 162.5869
99.557974 112.571 162.4915
100.279412 112.540 162.4001
101.006078 112.508 162.3120
101.738010 112.477 162.2267
102.475245 112.445 162.1440
103.217823 112.414 162.0657
103.965782 112.382 161.9945
104.719161 112.351 161.9319
105.477999 112.320 161.8755
106.242336 112.289 161.8190
107.012212 112.257 161.7546
107.787666 112.226 161.6769
108.568740 112.195 161.5871
109.355474 112.165 161.4926
110.147909 112.136 161.4029
110.946086 112.106 161.3243
111.750047 112.077 161.2571
112.559834 112.047 161.1964
113.375489 112.017 161.1374
114.197055 111.987 161.0790
115.024574 111.958 161.0228
115.858089 111.930 160.9692
116.697645 111.903 160.9175
117.543284 111.877 160.8674
118.395051 111.850 160.8195
119.252990 111.822 160.7739
120.117147 111.794 160.7297
120.987565 111.765 160.6858
121.864291 111.736 160.6412
122.747370 111.708 160.5955
123.636848 111.680 160.5488
124.532771 111.652 160.5014
125.435187 111.624 160.4543
126.344142 111.595 160.4080
127.259684 111.567 160.3621
128.181860 111.539 160.3169
129.110718 111.511 160.2727
130.046308 111.483 160.2306
130.988677 111.455 160.1914
131.937875 111.426 160.1557
132.893951 111.397 160.1238
133.856956 111.368 160.0959
134.826938 111.337 160.0718
135.803950 111.307 160.0511
136.788041 111.276 160.0334
137.779264 111.245 160.0181
138.777669 111.215 160.0052
139.783309 111.185 159.9944
140.796237 111.155 159.9855
141.816504 111.125 159.9786
142.844165 111.095 159.9743
143.879273 111.065 159.9737
144.921881 111.035 159.9774
145.972045 111.005 159.9857
147.029819 110.975 159.9983
148.095257 110.944 160.0154
149.168417 110.914 160.0370
150.249353 110.885 160.0632
151.338121 110.856 160.0945
152.434780 110.828 160.1315
153.539385 110.801 160.1746
154.651995 110.774 160.2234
155.772667 110.748 160.2772
156.901460 110.722 160.3368
158.038432 110.696 160.4044
159.183644 110.671 160.4828
160.337154 110.646 160.5735
161.499023 110.621 160.6758
162.669312 110.597 160.7873
163.848081 110.575 160.9055
165.035392 110.555 161.0288
166.231306 110.538 161.1555
167.435887 110.524 161.2835
168.649196 110.513 161.4094
169.871298 110.506 161.5275
171.102255 110.502 161.6307
172.342133 110.502 161.7133
173.590995 110.505 161.7716
174.848907 110.509 161.8046
176.115934 110.514 161.8142
177.392143 110.519 161.8030
178.677599 110.523 161.7722
179.972371 110.524 161.7225
181.276525 110.523 161.6553
182.590129 110.520 161.5736
183.913252 110.513 161.4814
185.245964 110.504 161.3828
186.588332 110.492 161.2811
187.940428 110.477 161.1788
189.302322 110.461 161.0776
190.674085 110.444 160.9785
192.055788 110.425 160.8828
193.447503 110.405 160.7922
194.849303 110.385 160.7087
196.261262 110.364 160.6339
197.683452 110.342 160.5685
199.115948 110.320 160.5124
200.558824 110.297 160.4651
202.012156 110.273 160.4255
203.476019 110.249 160.3926
204.950490 110.224 160.3652
206.435646 110.200 160.3427
207.931564 110.175 160.3248
209.438322 110.150 160.3115
210.955998 110.125 160.3028
212.484672 110.101 160.2984
214.024424 110.076 160.2981
215.575333 110.052 160.3011
217.137481 110.028 160.3069
218.710948 110.004 160.3156
220.295818 109.980 160.3276
221.892172 109.957 160.3439
223.500094 109.934 160.3647
225.119668 109.912 160.3903
226.750978 109.890 160.4200
228.394109 109.868 160.4535
230.049147 109.847 160.4903
231.716178 109.826 160.5301
233.395289 109.806 160.5723
235.086567 109.787 160.6168
236.790102 109.768 160.6633
238.505980 109.750 160.7119
240.234293 109.733 160.7620
241.975130 109.716 160.8124
243.728581 109.701 160.8617
245.494739 109.686 160.9085
247.273695 109.672 160.9517
249.065542 109.659 160.9906
250.870374 109.647 161.0247
252.688284 109.635 161.0537
254.519367 109.623 161.0771
256.363720 109.611 161.0950
258.221437 109.598 161.1078
260.092616 109.586 161.1167
261.977354 109.572 161.1228
263.875750 109.559 161.1276
265.787903 109.544 161.1320
267.713911 109.529 161.1371
269.653877 109.514 161.1439
271.607900 109.498 161.1527
273.576083 109.483 161.1636
275.558528 109.466 161.1764
277.555338 109.450 161.1909
279.566619 109.434 161.2071
281.592474 109.418 161.2250
283.633009 109.402 161.2446
285.688331 109.386 161.2659
287.758546 109.370 161.2886
289.843763 109.354 161.3131
291.944090 109.338 161.3394
294.059638 109.322 161.3673
296.190515 109.307 161.3968
298.336833 109.291 161.4274
300.498705 109.275 161.4590
302.676243 109.260 161.4916
304.869559 109.244 161.5255
307.078770 109.229 161.5610
309.303989 109.214 161.5982
311.545334 109.199 161.6375
313.802919 109.184 161.6790
316.076865 109.170 161.7226
318.367288 109.156 161.7684
320.674309 109.142 161.8167
322.998047 109.128 161.8672
325.338624 109.115 161.9200
327.696162 109.102 161.9745
330.070783 109.090 162.0301
332.462612 109.078 162.0863
334.871773 109.067 162.1427
337.298392 109.056 162.1989
339.742595 109.047 162.2546
342.204510 109.037 162.3097
344.684265 109.029 162.3635
347.181989 109.021 162.4154
349.697813 109.014 162.4648
352.231868 109.007 162.5114
354.784285 109.000 162.5547
357.355198 108.994 162.5945
359.944741 108.988 162.6307
362.553049 108.982 162.6632
365.180258 108.976 162.6920
367.826505 108.970 162.7172
370.491927 108.963 162.7394
373.176665 108.957 162.7594
375.880856 108.950 162.7778
378.604644 108.943 162.7955
381.348169 108.935 162.8129
384.111575 108.928 162.8303
386.895006 108.920 162.8475
389.698607 108.911 162.8649
392.522524 108.903 162.8824
395.366904 108.894 162.9006
398.231895 108.885 162.9196
401.117648 108.876 162.9398
404.024312 108.867 162.9616
406.952038 108.859 162.9851
409.900981 108.850 163.0102
412.871292 108.842 163.0366
415.863128 108.833 163.0641
418.876643 108.825 163.0924
421.911996 108.817 163.1215
424.969344 108.809 163.1514
428.048847 108.801 163.1820
431.150666 108.793 163.2134
434.274961 108.786 163.2457
437.421897 108.778 163.2787
440.591636 108.771 163.3123
443.784345 108.764 163.3461
447.000189 108.757 163.3802
450.239337 108.750 163.4146
453.501956 108.744 163.4492
456.788219 108.737 163.4843
460.098294 108.731 163.5195
463.432356 108.725 163.5551
466.790578 108.720 163.5911
470.173135 108.715 163.6277
473.580203 108.710 163.6647
477.011961 108.705 163.7017
480.468586 108.700 163.7382
483.950259 108.696 163.7742
487.457163 108.691 163.8096
490.989478 108.687 163.8447
494.547390 108.683 163.8797
498.131084 108.679 163.9146
501.740748 108.676 163.9495
505.376568 108.672 163.9845
509.038735 108.669 164.0194
512.727439 108.666 164.0543
516.442874 108.663 164.0891
520.185232 108.660 164.1237
523.954708 108.658 164.1581
527.751500 108.655 164.1924
531.575805 108.653 164.2269
535.427822 108.651 164.2618
539.307753 108.649 164.2972
543.215800 108.647 164.3333
547.152165 108.645 164.3702
551.117055 108.643 164.4079
555.110677 108.642 164.4463
559.133237 108.641 164.4850
563.184947 108.639 164.5238
567.266018 108.638 164.5625
571.376661 108.637 164.6011
575.517092 108.637 164.6398
579.687526 108.637 164.6788
583.888181 108.636 164.7182
588.119275 108.637 164.7581
592.381030 108.637 164.7986
596.673667 108.638 164.8398
600.997410 108.638 164.8817
605.352485 108.639 164.9245
609.739119 108.641 164.9682
614.157540 108.642 165.0128
618.607979 108.644 165.0584
623.090667 108.646 165.1047
627.605839 108.648 165.1516
632.153730 108.651 165.1990
636.734576 108.654 165.2471
641.348617 108.657 165.2959
645.996094 108.661 165.3457
650.677248 108.665 165.3965
655.392323 108.669 165.4484
660.141566 108.673 165.5012
664.925224 108.678 165.5548
669.743546 108.683 165.6092
674.596784 108.689 165.6647
679.485191 108.695 165.7216
684.409020 108.701 165.7797
689.368530 108.708 165.8392
694.363979 108.716 165.8998
699.395626 108.723 165.9614
704.463736 108.732 166.0238
709.568570 108.741 166.0871
714.710396 108.750 166.1515
719.889483 108.760 166.2171
725.106099 108.771 166.2842
730.360516 108.782 166.3526
735.653010 108.794 166.4224
740.983855 108.807 166.4935
746.353329 108.820 166.5656
751.761713 108.834 166.6385
757.209288 108.849 166.7124
762.696339 108.864 166.7870
768.223151 108.880 166.8624
773.790013 108.897 166.9387
779.397214 108.915 167.0161
785.045047 108.933 167.0948
790.733808 108.953 167.1747
796.463791 108.973 167.2556
802.235296 108.994 167.3370
808.048623 109.016 167.4186
813.904077 109.040 167.5000
819.801961 109.064 167.5810
825.742584 109.090 167.6616
831.726255 109.117 167.7416
837.753287 109.145 167.8212
843.823992 109.174 167.9001
849.938689 109.205 167.9782
856.097695 109.236 168.0555
862.301332 109.269 168.1317
868.549922 109.303 168.2063
874.843793 109.339 168.2790
881.183272 109.376 168.3492
887.568689 109.414 168.4167
894.000378 109.454 168.4810
900.478673 109.495 168.5417
907.003913 109.537 168.5986
913.576437 109.581 168.6513
920.196588 109.627 168.6992
926.864712 109.674 168.7417
933.581156 109.722 168.7782
940.346270 109.773 168.8083
947.160407 109.824 168.8315
954.023921 109.877 168.8475
960.937172 109.932 168.8557
967.900519 109.988 168.8555
974.914325 110.046 168.8461
981.978956 110.105 168.8270
989.094780 110.165 168.7977
996.262169 110.226 168.7578
1003.481495 110.289 168.7066
1010.753136 110.353 168.6440
1018.077470 110.418 168.5695
1025.454879 110.483 168.4828
1032.885748 110.550 168.3840
1040.370463 110.618 168.2726
1047.909417 110.687 168.1486
1055.503000 110.756 168.0115
1063.151610 110.826 167.8611
1070.855645 110.897 167.6967
1078.615506 110.968 167.5182
1086.431599 111.040 167.3254
1094.304330 111.112 167.1182
1102.234110 111.185 166.8965
1110.221353 111.257 166.6604
1118.266475 111.330 166.4097
1126.369895 111.403 166.1446
1134.532035 111.476 165.8648
1142.753322 111.549 165.5702
1151.034184 111.621 165.2602
1159.375052 111.694 164.9344
1167.776361 111.766 164.5922
1176.238550 111.838 164.2332
1184.762060 111.909 163.8569
1193.347334 111.979 163.4627
1201.994821 112.047 163.0498
1210.704971 112.114 162.6178
1219.478238 112.179 162.1667
1228.315080 112.240 161.6982
1237.215957 112.298 161.2159
1246.181334 112.350 160.7263
1255.211678 112.398 160.2390
1264.307459 112.441 159.7659
1273.469152 112.479 159.3197
1282.697235 112.516 158.9102
1291.992188 112.553 158.5412
1301.354495 112.593 158.2087
1310.784647 112.637 157.9019
1320.283132 112.686 157.6060
1329.850448 112.741 157.3068
1339.487093 112.801 156.9931
1349.193569 112.864 156.6581
1358.970381 112.929 156.2990
1368.818041 112.995 155.9161
1378.737061 113.062 155.5117
1388.727958 113.128 155.0886
1398.791253 113.194 154.6497
1408.927471 113.260 154.1976
1419.137140 113.325 153.7347
1429.420793 113.389 153.2626
1439.778965 113.453 152.7824
1450.212197 113.516 152.2951
1460.721033 113.579 151.8010
1471.306019 113.642 151.3005
1481.967709 113.705 150.7937
1492.706658 113.768 150.2810
1503.523426 113.831 149.7625
1514.418576 113.894 149.2383
1525.392678 113.957 148.7083
1536.446302 114.020 148.1725
1547.580025 114.083 147.6306
1558.794428 114.147 147.0826
1570.090095 114.211 146.5284
1581.467615 114.276 145.9676
1592.927581 114.341 145.3998
1604.470591 114.406 144.8246
1616.097246 114.472 144.2417
1627.808153 114.539 143.6509
1639.603922 114.606 143.0520
1651.485168 114.673 142.4449
1663.452510 114.741 141.8296
1675.506573 114.810 141.2057
1687.647984 114.878 140.5727
1699.877377 114.948 139.9301
1712.195390 115.017 139.2772
1724.602663 115.088 138.6138
1737.099845 115.159 137.9395
1749.687587 115.230 137.2541
1762.366544 115.302 136.5574
1775.137379 115.374 135.8489
1788.000756 115.447 135.1284
1800.957346 115.520 134.3951
1814.007826 115.593 133.6489
1827.152874 115.667 132.8890
1840.393177 115.741 132.1153
1853.729425 115.815 131.3272
1867.162312 115.890 130.5244
1880.692540 115.965 129.7067
1894.320813 116.039 128.8736
1908.047843 116.114 128.0249
1921.874344 116.189 127.1604
1935.801038 116.263 126.2799
1949.828650 116.338 125.3829
1963.957912 116.412 124.4693
1978.189561 116.487 123.5386
1992.524338 116.561 122.5907
2006.962991 116.634 121.6254
2021.506272 116.707 120.6428
2036.154940 116.780 119.6426
2050.909758 116.852 118.6248
2065.771495 116.923 117.5894
2080.740927 116.993 116.5363
2095.818833 117.062 115.4655
2111.006001 117.130 114.3770
2126.303220 117.198 113.2707
2141.711290 117.263 112.1466
2157.231013 117.328 111.0048
2172.863198 117.391 109.8457
2188.608660 117.453 108.6694
2204.468221 117.513 107.4762
2220.442706 117.572 106.2665
2236.532950 117.628 105.0407
2252.739789 117.683 103.7992
2269.064070 117.736 102.5424
2285.506644 117.786 101.2709
2302.068367 117.835 99.9851
2318.750104 117.881 98.6857
2335.552723 117.925 97.3733
2352.477101 117.967 96.0487
2369.524119 118.006 94.7126
2386.694668 118.043 93.3657
2403.989641 118.077 92.0087
2421.409941 118.109 90.6425
2438.956476 118.138 89.2677
2456.630160 118.165 87.8853
2474.431915 118.189 86.4963
2492.362668 118.210 85.1013
2510.423356 118.229 83.7012
2528.614918 118.246 82.2968
2546.938304 118.260 80.8886
2565.394469 118.271 79.4774
2583.984375 118.280 78.0637
2602.708991 118.287 76.6480
2621.569293 118.291 75.2312
2640.566265 118.294 73.8138
2659.700897 118.294 72.3966
2678.974186 118.291 70.9801
2698.387137 118.287 69.5650
2717.940763 118.281 68.1519
2737.636082 118.273 66.7414
2757.474121 118.263 65.3339
2777.455915 118.251 63.9301
2797.582506 118.238 62.5305
2817.854942 118.224 61.1356
2838.274281 118.208 59.7458
2858.841586 118.190 58.3613
2879.557931 118.172 56.9823
2900.424394 118.153 55.6090
2921.442065 118.133 54.2412
2942.612039 118.112 52.8791
2963.935418 118.091 51.5222
2985.413316 118.069 50.1704
3007.046852 118.047 48.8235
3028.837153 118.025 47.4811
3050.785356 118.003 46.1429
3072.892604 117.980 44.8084
3095.160050 117.958 43.4774
3117.588856 117.935 42.1496
3140.180190 117.913 40.8244
3162.935230 117.892 39.5013
3185.855163 117.871 38.1796
3208.941182 117.850 36.8588
3232.194493 117.830 35.5384
3255.616307 117.811 34.2179
3279.207844 117.792 32.8968
3302.970336 117.775 31.5746
3326.905021 117.758 30.2509
3351.013146 117.743 28.9252
3375.295969 117.728 27.5969
3399.754755 117.715 26.2654
3424.390779 117.703 24.9298
3449.205326 117.692 23.5896
3474.199690 117.683 22.2440
3499.375173 117.675 20.8922
3524.733088 117.668 19.5336
3550.274757 117.663 18.1671
3576.001511 117.659 16.7917
3601.914692 117.657 15.4066
3628.015651 117.656 14.0104
3654.305748 117.657 12.6022
3680.786354 117.660 11.1809
3707.458849 117.664 9.7455
3734.324624 117.669 8.2948
3761.385080 117.676 6.8279
3788.641627 117.684 5.3436
3816.095686 117.694 3.8409
3843.748688 117.705 2.3190
3871.602076 117.717 0.7764
3899.657300 117.730 -0.7877
3927.915825 117.745 -2.3745
3956.379122 117.760 -3.9850
3985.048676 117.777 -5.6202
4013.925981 117.794 -7.2812
4043.012544 117.812 -8.9690
4072.309879 117.832 -10.6849
4101.819515 117.852 -12.4305
4131.542990 117.874 -14.2083
4161.481854 117.896 -16.0208
4191.637667 117.919 -17.8713
4222.012001 117.943 -19.7631
4252.606441 117.967 -21.6995
4283.422580 117.990 -23.6833
4314.462026 118.012 -25.7169
4345.726396 118.032 -27.8018
4377.217321 118.049 -29.9384
4408.936442 118.062 -32.1265
4440.885413 118.071 -34.3652
4473.065899 118.074 -36.6531
4505.479579 118.072 -38.9880
4538.128141 118.063 -41.3674
4571.013288 118.046 -43.7882
4604.136735 118.022 -46.2469
4637.500207 117.989 -48.7399
4671.105446 117.947 -51.2626
4704.954201 117.896 -53.8105
4739.048239 117.834 -56.3784
4773.389336 117.762 -58.9604
4807.979283 117.680 -61.5506
4842.819883 117.586 -64.1420
4877.912952 117.481 -66.7272
4913.260320 117.366 -69.2986
4948.863830 117.239 -71.8479
4984.725337 117.103 -74.3675
5020.846712 116.956 -76.8500
5057.229836 116.801 -79.2891
5093.876609 116.639 -81.6797
5130.788938 116.470 -84.0187
5167.968750 116.296 -86.3047
5205.417982 116.117 -88.5378
5243.138586 115.936 -90.7195
5281.132530 115.752 -92.8516
5319.401793 115.566 -94.9365
5357.948371 115.379 -96.9758
5396.774274 115.191 -98.9708
5435.881525 115.002 -100.9221
5475.272163 114.812 -102.8293
5514.948243 114.622 -104.6924
5554.911831 114.431 -106.5106
5595.165012 114.241 -108.2834
5635.709884 114.052 -110.0109
5676.548561 113.864 -111.6930
5717.683172 113.678 -113.3303
5759.115861 113.493 -114.9236
5800.848789 113.312 -116.4740
5842.884130 113.134 -117.9829
5885.224077 112.959 -119.4519
5927.870837 112.788 -120.8828
5970.826633 112.622 -122.2776
6014.093704 112.461 -123.6382
6057.674306 112.304 -124.9669
6101.570711 112.153 -126.2656
6145.785208 112.007 -127.5360
6190.320101 111.867 -128.7797
6235.177712 111.733 -129.9978
6280.360380 111.606 -131.1915
6325.870460 111.484 -132.3616
6371.710325 111.370 -133.5085
6417.882365 111.262 -134.6324
6464.388986 111.162 -135.7332
6511.232613 111.069 -136.8110
6558.415689 110.985 -137.8663
6605.940673 110.910 -138.9004
6653.810042 110.845 -139.9152
6702.026292 110.790 -140.9139
6750.591937 110.747 -141.8997
6799.509509 110.714 -142.8759
6848.781558 110.693 -143.8453
6898.410653 110.685 -144.8110
6948.399380 110.690 -145.7762
6998.750346 110.710 -146.7457
7049.466176 110.743 -147.7246
7100.549514 110.793 -148.7196
7152.003023 110.858 -149.7385
7203.829385 110.939 -150.7889
7256.031302 111.037 -151.8788
7308.611496 111.151 -153.0148
7361.572708 111.283 -154.2031
7414.917698 111.432 -155.4498
7468.649249 111.599 -156.7620
7522.770160 111.784 -158.1479
7577.283253 111.990 -159.6182
7632.191371 112.216 -161.1852
7687.497376 112.464 -162.8640
7743.204151 112.734 -164.6727
7799.314600 113.026 -166.6324
7855.831649 113.342 -168.7670
7912.758244 113.680 -171.1043
7970.097352 114.040 -173.6754
8027.851962 114.420 -176.5151
8086.025087 114.817 -179.6617
8144.619758 115.227 176.8445
8203.639030 115.645 172.9631
8263.085980 116.060 168.6567
8322.963708 116.463 163.8958
8383.275334 116.841 158.6631
8444.024002 117.179 152.9597
8505.212881 117.460 146.8096
8566.845160 117.671 140.2649
8628.924051 117.795 133.4056
8691.452792 117.821 126.3400
8754.434642 117.742 119.1974
8817.872884 117.554 112.1210
8881.770826 117.260 105.2579
8946.131799 116.868 98.7477
9010.959157 116.389 92.7158
9076.256282 115.839 87.2668
9142.026576 115.237 82.4844
9208.273470 114.602 78.4297
9275.000415 113.958 75.1422
9342.210891 113.329 72.6392
9409.908403 112.741 70.9103
9478.096478 112.223 69.9085
9546.778672 111.802 69.5355
9615.958566 111.506 69.6282
9685.639765 111.355 69.9557
9755.825904 111.356 70.2369
9826.520640 111.502 70.1812
9897.727659 111.771 69.5392
9969.450674 112.128 68.1412
10041.693423 112.539 65.9123
10114.459673 112.969 62.8624
10187.753217 113.389 59.0644
10261.577877 113.778 54.6284
10335.937500 114.126 49.6791
10410.835964 114.426 44.3377
10486.277173 114.678 38.7083
10562.265060 114.889 32.8695
10638.803587 115.064 26.8703
10715.896743 115.212 20.7302
10793.548548 115.338 14.4424
10871.763050 115.447 7.9805
10950.544327 115.538 1.3071
11029.896485 115.608 -5.6164
11109.823662 115.649 -12.8192
11190.330024 115.651 -20.3137
11271.419768 115.601 -28.0877
11353.097122 115.486 -36.1019
11435.366344 115.296 -44.2899
11518.231722 115.020 -52.5618
11601.697577 114.653 -60.8131
11685.768261 114.195 -68.9320
11770.448155 113.649 -76.8107
11855.741674 113.023 -84.3531
11941.653265 112.327 -91.4827
12028.187408 111.574 -98.1439
12115.348612 110.777 -104.3049
12203.141422 109.952 -109.9552
12291.570415 109.111 -115.1031
12380.640201 108.268 -119.7715
12470.355424 107.431 -123.9941
12560.720760 106.612 -127.8120
12651.740920 105.817 -131.2709
12743.420650 105.050 -134.4165
12835.764729 104.317 -137.2927
12928.777972 103.619 -139.9390
13022.465227 102.957 -142.3904
13116.831378 102.333 -144.6780
13211.881345 101.746 -146.8284
13307.620084 101.196 -148.8651
13404.052584 100.683 -150.8103
13501.183875 100.205 -152.6851
13599.019019 99.763 -154.5099
13697.563116 99.355 -156.3038
13796.821305 98.981 -158.0835
13896.798760 98.642 -159.8629
13997.500692 98.337 -161.6541
14098.932352 98.067 -163.4680
14201.099028 97.833 -165.3176
14304.006046 97.637 -167.2192
14407.658770 97.479 -169.1936
14512.062604 97.360 -171.2671
14617.222992 97.283 -173.4705
14723.145416 97.246 -175.8381
14829.835397 97.250 -178.4091
14937.298497 97.293 178.7722
15045.540320 97.374 175.6552
15154.566507 97.488 172.1838
15264.382743 97.631 168.3022
15374.994752 97.792 163.9587
15486.408302 97.963 159.1132
15598.629201 98.129 153.7400
15711.663298 98.278 147.8333
15825.516487 98.394 141.4075
15940.194703 98.463 134.5015
16055.703925 98.469 127.1774
16172.050174 98.400 119.5225
16289.239516 98.246 111.6460
16407.278061 98.001 103.6744
16526.171961 97.664 95.7432
16645.927415 97.239 87.9863
16766.550667 96.737 80.5238
16888.048005 96.171 73.4498
17010.425762 95.561 66.8237
17133.690320 94.925 60.6636
17257.848103 94.285 54.9451
17382.905584 93.661 49.6034
17508.869284 93.071 44.5330
17635.745768 92.532 39.5892
17763.541652 92.053 34.5923
17892.263597 91.637 29.3354
18021.918315 91.277 23.6071
18152.512564 90.955 17.2192
18284.053153 90.637 10.0436
18416.546939 90.281 2.0441
18550.000830 89.839 -6.6998
18684.421783 89.266 -15.9845
18819.816805 88.525 -25.4969
18956.192956 87.594 -34.8508
19093.557344 86.470 -43.6354
19231.917131 85.168 -51.4607
19371.279531 83.716 -57.9982
19511.651807 82.172 -63.0582
19653.041280 80.638 -66.7904
19795.455318 79.309 -70.0299
19938.901348 78.497 -74.4088
