* Measurement data measured by REW V5.20.9
* Source: Input device not selected, no input selected, L, volume: no control. Timing signal peak level -51,7 dBFS, measurement signal peak level -12,2 dBFS
* Format: 256k Log Swept Sine, 1 sweep at -12,0 dBFS using an acoustic timing reference
* Dated: 30.07.2024 14:20:24
* REW Settings:
*  C-weighting compensation: Off
*  Target level: 75.0 dB
* Note: Delay 0,1163 ms (40 mm, 1,57 in) using estimated IR delay relative to Acoustic reference on  R with no timing offset
* Measurement: M100
* Smoothing: 1/12 octave
* Frequency Step: 96 ppo
* Start Frequency: 20.187378 Hz
*
* Freq(Hz) SPL(dB) Phase(degrees)
20.187378 114.084 -131.9607
20.333664 114.094 -132.1637
20.481010 114.108 -132.4597
20.629424 114.126 -132.8215
20.778913 114.146 -133.2262
20.929486 114.167 -133.6571
21.081150 114.188 -134.1036
21.233912 114.210 -134.5592
21.387782 114.232 -135.0207
21.542767 114.255 -135.4861
21.698874 114.278 -135.9547
21.856113 114.300 -136.4259
22.014492 114.323 -136.8991
22.174018 114.345 -137.3740
22.334700 114.367 -137.8496
22.496546 114.389 -138.3252
22.659566 114.410 -138.7996
22.823766 114.430 -139.2719
22.989157 114.449 -139.7412
23.155745 114.467 -140.2067
23.323542 114.485 -140.6680
23.492554 114.502 -141.1253
23.662790 114.518 -141.5789
23.834261 114.534 -142.0296
24.006973 114.551 -142.4787
24.180938 114.567 -142.9272
24.356163 114.583 -143.3766
24.532658 114.598 -143.8276
24.710431 114.614 -144.2809
24.889493 114.629 -144.7365
25.069853 114.644 -145.1937
25.251519 114.657 -145.6515
25.434502 114.670 -146.1083
25.618811 114.682 -146.5624
25.804456 114.692 -147.0120
25.991445 114.702 -147.4560
26.179790 114.711 -147.8934
26.369500 114.719 -148.3244
26.560584 114.727 -148.7496
26.753053 114.734 -149.1706
26.946917 114.741 -149.5894
27.142185 114.748 -150.0083
27.338869 114.755 -150.4298
27.536977 114.761 -150.8555
27.736522 114.767 -151.2868
27.937512 114.773 -151.7239
28.139959 114.778 -152.1660
28.343872 114.782 -152.6117
28.549264 114.786 -153.0585
28.756143 114.789 -153.5036
28.964522 114.792 -153.9444
29.174411 114.795 -154.3781
29.385821 114.798 -154.8031
29.598763 114.801 -155.2184
29.813248 114.805 -155.6238
30.029287 114.809 -156.0206
30.246891 114.814 -156.4105
30.466073 114.818 -156.7962
30.686842 114.823 -157.1803
30.909212 114.827 -157.5656
31.133193 114.830 -157.9544
31.358797 114.831 -158.3480
31.586035 114.832 -158.7470
31.814921 114.831 -159.1507
32.045465 114.828 -159.5579
32.277680 114.825 -159.9666
32.511577 114.821 -160.3749
32.747169 114.816 -160.7811
32.984469 114.813 -161.1846
33.223488 114.810 -161.5855
33.464239 114.808 -161.9849
33.706735 114.807 -162.3840
33.950987 114.806 -162.7837
34.197010 114.804 -163.1839
34.444816 114.801 -163.5833
34.694417 114.797 -163.9793
34.945827 114.790 -164.3689
35.199059 114.782 -164.7497
35.454126 114.773 -165.1207
35.711041 114.765 -165.4828
35.969818 114.757 -165.8391
36.230470 114.751 -166.1935
36.493011 114.746 -166.5500
36.757455 114.742 -166.9106
37.023814 114.738 -167.2758
37.292104 114.734 -167.6439
37.562338 114.728 -168.0124
37.834530 114.722 -168.3795
38.108695 114.714 -168.7449
38.384846 114.706 -169.1100
38.662999 114.696 -169.4769
38.943167 114.685 -169.8470
39.225365 114.674 -170.2195
39.509608 114.662 -170.5919
39.795911 114.652 -170.9605
40.084289 114.643 -171.3225
40.374756 114.637 -171.6780
40.667328 114.636 -172.0304
40.962020 114.637 -172.3852
41.258848 114.640 -172.7471
41.557827 114.642 -173.1172
41.858972 114.639 -173.4919
42.162299 114.630 -173.8626
42.467824 114.614 -174.2197
42.775564 114.591 -174.5550
43.085533 114.561 -174.8657
43.397749 114.529 -175.1553
43.712227 114.495 -175.4324
44.028983 114.463 -175.7079
44.348036 114.433 -175.9912
44.669400 114.407 -176.2877
44.993093 114.384 -176.5974
45.319131 114.365 -176.9149
45.647532 114.350 -177.2321
45.978313 114.337 -177.5406
46.311491 114.327 -177.8348
46.647083 114.319 -178.1147
46.985107 114.313 -178.3858
47.325581 114.306 -178.6574
47.668521 114.296 -178.9391
48.013947 114.282 -179.2365
48.361876 114.262 -179.5496
48.712326 114.236 -179.8734
49.065315 114.204 179.7988
49.420863 114.169 179.4718
49.778987 114.134 179.1469
50.139706 114.101 178.8228
50.503039 114.070 178.4991
50.869005 114.042 178.1782
51.237623 114.017 177.8658
51.608912 113.993 177.5681
51.982891 113.970 177.2886
52.359580 113.948 177.0267
52.739000 113.926 176.7783
53.121168 113.905 176.5380
53.506106 113.883 176.3015
53.893833 113.861 176.0666
54.284370 113.839 175.8322
54.677737 113.818 175.5982
55.073955 113.797 175.3641
55.473043 113.777 175.1293
55.875024 113.756 174.8925
56.279917 113.734 174.6517
56.687745 113.711 174.4045
57.098527 113.686 174.1490
57.512287 113.659 173.8851
57.929045 113.631 173.6148
58.348822 113.602 173.3417
58.771642 113.573 173.0701
59.197525 113.546 172.8033
59.626495 113.520 172.5436
60.058573 113.494 172.2917
60.493782 113.470 172.0474
60.932145 113.444 171.8098
61.373685 113.418 171.5775
61.818424 113.392 171.3490
62.266386 113.364 171.1230
62.717593 113.336 170.8990
63.172071 113.308 170.6778
63.629842 113.280 170.4602
64.090930 113.252 170.2464
64.555359 113.225 170.0353
65.023154 113.197 169.8250
65.494339 113.169 169.6135
65.968938 113.141 169.4004
66.446976 113.111 169.1866
66.928478 113.080 168.9741
67.413469 113.048 168.7653
67.901975 113.016 168.5626
68.394021 112.983 168.3681
68.889632 112.950 168.1836
69.388835 112.916 168.0098
69.891655 112.883 167.8449
70.398118 112.850 167.6854
70.908252 112.818 167.5268
71.422083 112.786 167.3661
71.939636 112.754 167.2030
72.460941 112.721 167.0398
72.986023 112.689 166.8793
73.514909 112.656 166.7240
74.047629 112.623 166.5748
74.584208 112.590 166.4318
75.124676 112.557 166.2941
75.669061 112.524 166.1606
76.217390 112.491 166.0305
76.769692 112.458 165.9036
77.325997 112.425 165.7803
77.886333 112.393 165.6616
78.450730 112.361 165.5486
79.019216 112.330 165.4417
79.591822 112.300 165.3397
80.168577 112.271 165.2401
80.749512 112.243 165.1405
81.334656 112.217 165.0395
81.924040 112.192 164.9366
82.517696 112.167 164.8312
83.115653 112.143 164.7233
83.717943 112.119 164.6130
84.324598 112.094 164.5008
84.935649 112.069 164.3871
85.551128 112.044 164.2719
86.171066 112.019 164.1538
86.795497 111.994 164.0315
87.424453 111.968 163.9036
88.057967 111.940 163.7705
88.696071 111.912 163.6343
89.338800 111.882 163.4984
89.986185 111.852 163.3661
90.638262 111.821 163.2407
91.295065 111.790 163.1248
91.956626 111.758 163.0201
92.622982 111.726 162.9260
93.294166 111.694 162.8391
93.970214 111.662 162.7537
94.651161 111.630 162.6656
95.337042 111.599 162.5726
96.027894 111.567 162.4746
96.723752 111.536 162.3732
97.424652 111.506 162.2729
98.130631 111.474 162.1804
98.841726 111.441 162.1014
99.557974 111.407 162.0361
100.279412 111.371 161.9803
101.006078 111.335 161.9283
101.738010 111.299 161.8759
102.475245 111.265 161.8218
103.217823 111.231 161.7688
103.965782 111.198 161.7212
104.719161 111.166 161.6826
105.477999 111.134 161.6545
106.242336 111.102 161.6366
107.012212 111.071 161.6297
107.787666 111.041 161.6352
108.568740 111.012 161.6520
109.355474 110.984 161.6742
110.147909 110.959 161.6916
110.946086 110.935 161.6942
111.750047 110.912 161.6790
112.559834 110.888 161.6540
113.375489 110.864 161.6338
114.197055 110.839 161.6289
115.024574 110.812 161.6413
115.858089 110.786 161.6660
116.697645 110.759 161.6956
117.543284 110.735 161.7251
118.395051 110.713 161.7505
119.252990 110.692 161.7668
120.117147 110.671 161.7697
120.987565 110.649 161.7603
121.864291 110.627 161.7460
122.747370 110.605 161.7374
123.636848 110.584 161.7423
124.532771 110.565 161.7600
125.435187 110.547 161.7828
126.344142 110.529 161.8031
127.259684 110.514 161.8177
128.181860 110.499 161.8281
129.110718 110.486 161.8367
130.046308 110.473 161.8421
130.988677 110.462 161.8380
131.937875 110.451 161.8163
132.893951 110.441 161.7727
133.856956 110.430 161.7107
134.826938 110.418 161.6384
135.803950 110.406 161.5627
136.788041 110.392 161.4872
137.779264 110.378 161.4133
138.777669 110.364 161.3409
139.783309 110.350 161.2681
140.796237 110.335 161.1918
141.816504 110.320 161.1096
142.844165 110.303 161.0209
143.879273 110.284 160.9274
144.921881 110.264 160.8322
145.972045 110.243 160.7391
147.029819 110.219 160.6520
148.095257 110.195 160.5742
149.168417 110.169 160.5080
150.249353 110.142 160.4536
151.338121 110.116 160.4108
152.434780 110.089 160.3788
153.539385 110.062 160.3560
154.651995 110.035 160.3404
155.772667 110.008 160.3297
156.901460 109.982 160.3216
158.038432 109.956 160.3159
159.183644 109.932 160.3141
160.337154 109.910 160.3197
161.499023 109.889 160.3354
162.669312 109.869 160.3612
163.848081 109.850 160.3922
165.035392 109.833 160.4214
166.231306 109.817 160.4430
167.435887 109.802 160.4537
168.649196 109.789 160.4519
169.871298 109.777 160.4355
171.102255 109.765 160.4028
172.342133 109.753 160.3549
173.590995 109.742 160.2957
174.848907 109.731 160.2314
176.115934 109.719 160.1667
177.392143 109.706 160.1023
178.677599 109.692 160.0361
179.972371 109.676 159.9665
181.276525 109.658 159.8930
182.590129 109.638 159.8163
183.913252 109.617 159.7384
185.245964 109.595 159.6612
186.588332 109.571 159.5864
187.940428 109.546 159.5154
189.302322 109.520 159.4500
190.674085 109.494 159.3914
192.055788 109.467 159.3406
193.447503 109.440 159.2980
194.849303 109.413 159.2633
196.261262 109.385 159.2358
197.683452 109.358 159.2142
199.115948 109.330 159.1969
200.558824 109.303 159.1829
202.012156 109.276 159.1716
203.476019 109.250 159.1629
204.950490 109.223 159.1569
206.435646 109.197 159.1536
207.931564 109.171 159.1534
209.438322 109.145 159.1564
210.955998 109.119 159.1629
212.484672 109.093 159.1730
214.024424 109.068 159.1864
215.575333 109.042 159.2027
217.137481 109.017 159.2211
218.710948 108.991 159.2413
220.295818 108.966 159.2634
221.892172 108.941 159.2877
223.500094 108.916 159.3145
225.119668 108.892 159.3441
226.750978 108.867 159.3764
228.394109 108.843 159.4110
230.049147 108.819 159.4479
231.716178 108.794 159.4874
233.395289 108.770 159.5298
235.086567 108.746 159.5755
236.790102 108.722 159.6249
238.505980 108.698 159.6784
240.234293 108.675 159.7363
241.975130 108.651 159.7988
243.728581 108.628 159.8658
245.494739 108.606 159.9375
247.273695 108.583 160.0139
249.065542 108.561 160.0955
250.870374 108.540 160.1824
252.688284 108.519 160.2751
254.519367 108.499 160.3742
256.363720 108.481 160.4800
258.221437 108.463 160.5922
260.092616 108.447 160.7098
261.977354 108.433 160.8317
263.875750 108.421 160.9561
265.787903 108.411 161.0811
267.713911 108.403 161.2047
269.653877 108.397 161.3245
271.607900 108.394 161.4377
273.576083 108.393 161.5416
275.558528 108.393 161.6334
277.555338 108.395 161.7108
279.566619 108.397 161.7722
281.592474 108.400 161.8166
283.633009 108.403 161.8442
285.688331 108.406 161.8560
287.758546 108.407 161.8538
289.843763 108.407 161.8403
291.944090 108.406 161.8184
294.059638 108.404 161.7908
296.190515 108.400 161.7597
298.336833 108.394 161.7270
300.498705 108.387 161.6941
302.676243 108.379 161.6624
304.869559 108.369 161.6327
307.078770 108.359 161.6057
309.303989 108.348 161.5820
311.545334 108.337 161.5616
313.802919 108.325 161.5446
316.076865 108.313 161.5309
318.367288 108.300 161.5206
320.674309 108.288 161.5131
322.998047 108.275 161.5084
325.338624 108.263 161.5059
327.696162 108.250 161.5055
330.070783 108.238 161.5071
332.462612 108.225 161.5109
334.871773 108.213 161.5165
337.298392 108.201 161.5242
339.742595 108.189 161.5333
342.204510 108.177 161.5435
344.684265 108.165 161.5541
347.181989 108.154 161.5649
349.697813 108.142 161.5757
352.231868 108.130 161.5867
354.784285 108.119 161.5981
357.355198 108.107 161.6105
359.944741 108.095 161.6240
362.553049 108.084 161.6385
365.180258 108.073 161.6542
367.826505 108.062 161.6709
370.491927 108.051 161.6890
373.176665 108.040 161.7081
375.880856 108.029 161.7284
378.604644 108.018 161.7495
381.348169 108.007 161.7712
384.111575 107.997 161.7933
386.895006 107.987 161.8157
389.698607 107.976 161.8386
392.522524 107.966 161.8618
395.366904 107.957 161.8853
398.231895 107.947 161.9091
401.117648 107.937 161.9332
404.024312 107.928 161.9578
406.952038 107.919 161.9828
409.900981 107.909 162.0085
412.871292 107.901 162.0349
415.863128 107.892 162.0618
418.876643 107.883 162.0892
421.911996 107.875 162.1169
424.969344 107.867 162.1445
428.048847 107.859 162.1722
431.150666 107.851 162.2002
434.274961 107.844 162.2284
437.421897 107.836 162.2568
440.591636 107.829 162.2855
443.784345 107.822 162.3143
447.000189 107.816 162.3433
450.239337 107.809 162.3723
453.501956 107.803 162.4009
456.788219 107.796 162.4293
460.098294 107.790 162.4576
463.432356 107.784 162.4858
466.790578 107.778 162.5142
470.173135 107.773 162.5426
473.580203 107.767 162.5712
477.011961 107.762 162.5998
480.468586 107.757 162.6285
483.950259 107.752 162.6573
487.457163 107.747 162.6863
490.989478 107.742 162.7156
494.547390 107.738 162.7450
498.131084 107.733 162.7746
501.740748 107.729 162.8043
505.376568 107.725 162.8340
509.038735 107.722 162.8636
512.727439 107.718 162.8928
516.442874 107.715 162.9216
520.185232 107.711 162.9503
523.954708 107.709 162.9791
527.751500 107.706 163.0085
531.575805 107.703 163.0386
535.427822 107.701 163.0694
539.307753 107.699 163.1006
543.215800 107.697 163.1322
547.152165 107.695 163.1641
551.117055 107.693 163.1961
555.110677 107.692 163.2282
559.133237 107.690 163.2603
563.184947 107.689 163.2925
567.266018 107.688 163.3249
571.376661 107.688 163.3577
575.517092 107.688 163.3911
579.687526 107.688 163.4250
583.888181 107.688 163.4594
588.119275 107.689 163.4937
592.381030 107.689 163.5279
596.673667 107.690 163.5623
600.997410 107.692 163.5974
605.352485 107.693 163.6332
609.739119 107.695 163.6700
614.157540 107.697 163.7075
618.607979 107.699 163.7457
623.090667 107.702 163.7846
627.605839 107.705 163.8241
632.153730 107.708 163.8639
636.734576 107.711 163.9039
641.348617 107.715 163.9440
645.996094 107.719 163.9844
650.677248 107.724 164.0252
655.392323 107.728 164.0666
660.141566 107.734 164.1085
664.925224 107.739 164.1510
669.743546 107.745 164.1943
674.596784 107.752 164.2385
679.485191 107.759 164.2834
684.409020 107.766 164.3290
689.368530 107.774 164.3751
694.363979 107.782 164.4218
699.395626 107.791 164.4692
704.463736 107.800 164.5172
709.568570 107.810 164.5661
714.710396 107.820 164.6159
719.889483 107.831 164.6669
725.106099 107.842 164.7191
730.360516 107.854 164.7724
735.653010 107.866 164.8265
740.983855 107.879 164.8813
746.353329 107.893 164.9367
751.761713 107.907 164.9930
757.209288 107.922 165.0500
762.696339 107.938 165.1076
768.223151 107.954 165.1658
773.790013 107.971 165.2243
779.397214 107.989 165.2834
785.045047 108.008 165.3428
790.733808 108.028 165.4024
796.463791 108.048 165.4619
802.235296 108.070 165.5214
808.048623 108.092 165.5806
813.904077 108.115 165.6397
819.801961 108.139 165.6985
825.742584 108.164 165.7570
831.726255 108.190 165.8150
837.753287 108.218 165.8720
843.823992 108.246 165.9278
849.938689 108.276 165.9819
856.097695 108.306 166.0344
862.301332 108.338 166.0849
868.549922 108.372 166.1333
874.843793 108.406 166.1790
881.183272 108.442 166.2217
887.568689 108.480 166.2608
894.000378 108.518 166.2961
900.478673 108.558 166.3275
907.003913 108.600 166.3548
913.576437 108.643 166.3778
920.196588 108.687 166.3964
926.864712 108.732 166.4100
933.581156 108.779 166.4180
940.346270 108.827 166.4195
947.160407 108.876 166.4138
954.023921 108.927 166.4003
960.937172 108.980 166.3785
967.900519 109.033 166.3479
974.914325 109.088 166.3084
981.978956 109.145 166.2599
989.094780 109.202 166.2025
996.262169 109.261 166.1357
1003.481495 109.320 166.0590
1010.753136 109.381 165.9715
1018.077470 109.442 165.8729
1025.454879 109.504 165.7627
1032.885748 109.568 165.6408
1040.370463 109.632 165.5069
1047.909417 109.696 165.3610
1055.503000 109.761 165.2029
1063.151610 109.827 165.0323
1070.855645 109.894 164.8491
1078.615506 109.960 164.6531
1086.431599 110.027 164.4442
1094.304330 110.095 164.2223
1102.234110 110.162 163.9873
1110.221353 110.230 163.7391
1118.266475 110.298 163.4778
1126.369895 110.366 163.2032
1134.532035 110.433 162.9153
1142.753322 110.501 162.6138
1151.034184 110.569 162.2981
1159.375052 110.636 161.9680
1167.776361 110.704 161.6228
1176.238550 110.770 161.2621
1184.762060 110.837 160.8851
1193.347334 110.902 160.4907
1201.994821 110.966 160.0780
1210.704971 111.028 159.6467
1219.478238 111.088 159.1973
1228.315080 111.145 158.7314
1237.215957 111.198 158.2531
1246.181334 111.246 157.7691
1255.211678 111.289 157.2892
1264.307459 111.328 156.8255
1273.469152 111.363 156.3903
1282.697235 111.395 155.9933
1291.992188 111.429 155.6378
1301.354495 111.465 155.3196
1310.784647 111.507 155.0272
1320.283132 111.554 154.7458
1329.850448 111.606 154.4607
1339.487093 111.664 154.1608
1349.193569 111.724 153.8395
1358.970381 111.787 153.4942
1368.818041 111.851 153.1253
1378.737061 111.916 152.7349
1388.727958 111.980 152.3259
1398.791253 112.044 151.9014
1408.927471 112.108 151.4642
1419.137140 112.172 151.0162
1429.420793 112.235 150.5589
1439.778965 112.297 150.0934
1450.212197 112.360 149.6208
1460.721033 112.422 149.1417
1471.306019 112.484 148.6569
1481.967709 112.546 148.1669
1492.706658 112.609 147.6717
1503.523426 112.671 147.1713
1514.418576 112.734 146.6652
1525.392678 112.797 146.1532
1536.446302 112.861 145.6354
1547.580025 112.925 145.1117
1558.794428 112.990 144.5820
1570.090095 113.055 144.0457
1581.467615 113.121 143.5021
1592.927581 113.187 142.9503
1604.470591 113.255 142.3898
1616.097246 113.323 141.8203
1627.808153 113.391 141.2411
1639.603922 113.460 140.6521
1651.485168 113.530 140.0527
1663.452510 113.600 139.4426
1675.506573 113.671 138.8217
1687.647984 113.742 138.1900
1699.877377 113.813 137.5477
1712.195390 113.885 136.8946
1724.602663 113.958 136.2307
1737.099845 114.030 135.5557
1749.687587 114.104 134.8693
1762.366544 114.177 134.1714
1775.137379 114.251 133.4617
1788.000756 114.326 132.7398
1800.957346 114.400 132.0055
1814.007826 114.476 131.2583
1827.152874 114.551 130.4977
1840.393177 114.627 129.7234
1853.729425 114.703 128.9348
1867.162312 114.780 128.1316
1880.692540 114.856 127.3132
1894.320813 114.933 126.4792
1908.047843 115.010 125.6294
1921.874344 115.087 124.7635
1935.801038 115.164 123.8810
1949.828650 115.241 122.9819
1963.957912 115.318 122.0657
1978.189561 115.395 121.1325
1992.524338 115.472 120.1820
2006.962991 115.548 119.2141
2021.506272 115.624 118.2285
2036.154940 115.700 117.2252
2050.909758 115.775 116.2040
2065.771495 115.849 115.1646
2080.740927 115.923 114.1067
2095.818833 115.995 113.0303
2111.006001 116.067 111.9353
2126.303220 116.138 110.8220
2141.711290 116.207 109.6904
2157.231013 116.276 108.5404
2172.863198 116.343 107.3718
2188.608660 116.409 106.1847
2204.468221 116.473 104.9791
2220.442706 116.535 103.7558
2236.532950 116.596 102.5151
2252.739789 116.654 101.2575
2269.064070 116.711 99.9833
2285.506644 116.766 98.6928
2302.068367 116.818 97.3867
2318.750104 116.868 96.0658
2335.552723 116.916 94.7307
2352.477101 116.961 93.3819
2369.524119 117.004 92.0203
2386.694668 117.044 90.6465
2403.989641 117.081 89.2615
2421.409941 117.116 87.8660
2438.956476 117.148 86.4608
2456.630160 117.177 85.0469
2474.431915 117.203 83.6253
2492.362668 117.227 82.1969
2510.423356 117.247 80.7626
2528.614918 117.265 79.3237
2546.938304 117.280 77.8808
2565.394469 117.292 76.4353
2583.984375 117.301 74.9881
2602.708991 117.307 73.5407
2621.569293 117.311 72.0941
2640.566265 117.312 70.6494
2659.700897 117.310 69.2077
2678.974186 117.306 67.7699
2698.387137 117.299 66.3370
2717.940763 117.291 64.9103
2737.636082 117.280 63.4908
2757.474121 117.267 62.0794
2777.455915 117.252 60.6774
2797.582506 117.236 59.2855
2817.854942 117.218 57.9045
2838.274281 117.200 56.5348
2858.841586 117.180 55.1762
2879.557931 117.161 53.8286
2900.424394 117.141 52.4916
2921.442065 117.121 51.1644
2942.612039 117.102 49.8464
2963.935418 117.083 48.5362
2985.413316 117.066 47.2323
3007.046852 117.049 45.9332
3028.837153 117.034 44.6373
3050.785356 117.021 43.3425
3072.892604 117.009 42.0470
3095.160050 116.998 40.7487
3117.588856 116.989 39.4456
3140.180190 116.981 38.1361
3162.935230 116.974 36.8188
3185.855163 116.967 35.4925
3208.941182 116.962 34.1562
3232.194493 116.957 32.8096
3255.616307 116.952 31.4528
3279.207844 116.947 30.0862
3302.970336 116.942 28.7108
3326.905021 116.937 27.3276
3351.013146 116.931 25.9376
3375.295969 116.925 24.5421
3399.754755 116.919 23.1423
3424.390779 116.912 21.7397
3449.205326 116.905 20.3354
3474.199690 116.899 18.9301
3499.375173 116.893 17.5242
3524.733088 116.887 16.1178
3550.274757 116.882 14.7105
3576.001511 116.878 13.3018
3601.914692 116.876 11.8905
3628.015651 116.874 10.4755
3654.305748 116.875 9.0552
3680.786354 116.877 7.6282
3707.458849 116.882 6.1927
3734.324624 116.888 4.7471
3761.385080 116.896 3.2898
3788.641627 116.905 1.8192
3816.095686 116.917 0.3340
3843.748688 116.930 -1.1669
3871.602076 116.945 -2.6842
3899.657300 116.962 -4.2188
3927.915825 116.980 -5.7711
3956.379122 117.000 -7.3419
3985.048676 117.021 -8.9316
4013.925981 117.043 -10.5410
4043.012544 117.067 -12.1711
4072.309879 117.092 -13.8234
4101.819515 117.119 -15.4995
4131.542990 117.146 -17.2012
4161.481854 117.176 -18.9305
4191.637667 117.206 -20.6898
4222.012001 117.237 -22.4813
4252.606441 117.269 -24.3071
4283.422580 117.302 -26.1694
4314.462026 117.334 -28.0699
4345.726396 117.366 -30.0100
4377.217321 117.398 -31.9909
4408.936442 117.428 -34.0135
4440.885413 117.456 -36.0784
4473.065899 117.482 -38.1852
4505.479579 117.504 -40.3334
4538.128141 117.524 -42.5216
4571.013288 117.540 -44.7487
4604.136735 117.551 -47.0126
4637.500207 117.558 -49.3115
4671.105446 117.560 -51.6429
4704.954201 117.556 -54.0043
4739.048239 117.546 -56.3928
4773.389336 117.530 -58.8053
4807.979283 117.508 -61.2384
4842.819883 117.479 -63.6886
4877.912952 117.444 -66.1523
4913.260320 117.402 -68.6257
4948.863830 117.353 -71.1047
4984.725337 117.297 -73.5853
5020.846712 117.234 -76.0635
5057.229836 117.165 -78.5350
5093.876609 117.089 -80.9960
5130.788938 117.007 -83.4423
5167.968750 116.919 -85.8702
5205.417982 116.826 -88.2761
5243.138586 116.728 -90.6566
5281.132530 116.625 -93.0083
5319.401793 116.519 -95.3286
5357.948371 116.409 -97.6151
5396.774274 116.297 -99.8657
5435.881525 116.183 -102.0791
5475.272163 116.067 -104.2536
5514.948243 115.951 -106.3883
5554.911831 115.836 -108.4826
5595.165012 115.721 -110.5370
5635.709884 115.607 -112.5518
5676.548561 115.496 -114.5282
5717.683172 115.388 -116.4674
5759.115861 115.284 -118.3710
5800.848789 115.184 -120.2408
5842.884130 115.089 -122.0791
5885.224077 114.999 -123.8881
5927.870837 114.916 -125.6702
5970.826633 114.841 -127.4283
6014.093704 114.772 -129.1659
6057.674306 114.713 -130.8865
6101.570711 114.662 -132.5941
6145.785208 114.621 -134.2932
6190.320101 114.591 -135.9883
6235.177712 114.572 -137.6843
6280.360380 114.564 -139.3864
6325.870460 114.569 -141.1007
6371.710325 114.588 -142.8340
6417.882365 114.620 -144.5934
6464.388986 114.667 -146.3875
6511.232613 114.730 -148.2261
6558.415689 114.809 -150.1204
6605.940673 114.904 -152.0838
6653.810042 115.017 -154.1317
6702.026292 115.148 -156.2811
6750.591937 115.296 -158.5507
6799.509509 115.460 -160.9603
6848.781558 115.641 -163.5306
6898.410653 115.837 -166.2838
6948.399380 116.046 -169.2433
6998.750346 116.265 -172.4340
7049.466176 116.492 -175.8807
7100.549514 116.722 -179.6074
7152.003023 116.949 176.3640
7203.829385 117.168 172.0158
7256.031302 117.369 167.3373
7308.611496 117.544 162.3281
7361.572708 117.684 157.0010
7414.917698 117.778 151.3845
7468.649249 117.817 145.5225
7522.770160 117.793 139.4740
7577.283253 117.702 133.3094
7632.191371 117.538 127.1066
7687.497376 117.303 120.9461
7743.204151 116.998 114.9058
7799.314600 116.628 109.0564
7855.831649 116.199 103.4576
7912.758244 115.721 98.1554
7970.097352 115.201 93.1818
8027.851962 114.649 88.5546
8086.025087 114.074 84.2790
8144.619758 113.484 80.3498
8203.639030 112.887 76.7542
8263.085980 112.288 73.4745
8322.963708 111.693 70.4905
8383.275334 111.105 67.7813
8444.024002 110.527 65.3273
8505.212881 109.961 63.1112
8566.845160 109.409 61.1179
8628.924051 108.872 59.3353
8691.452792 108.351 57.7548
8754.434642 107.846 56.3718
8817.872884 107.358 55.1856
8881.770826 106.889 54.1996
8946.131799 106.439 53.4208
9010.959157 106.010 52.8608
9076.256282 105.604 52.5353
9142.026576 105.226 52.4654
9208.273470 104.882 52.6756
9275.000415 104.580 53.1909
9342.210891 104.331 54.0291
9409.908403 104.151 55.1901
9478.096478 104.054 56.6408
9546.778672 104.060 58.2982
9615.958566 104.181 60.0185
9685.639765 104.424 61.6008
9755.825904 104.787 62.8116
9826.520640 105.253 63.4261
9897.727659 105.798 63.2708
9969.450674 106.393 62.2496
10041.693423 107.007 60.3472
10114.459673 107.614 57.6159
10187.753217 108.192 54.1534
10261.577877 108.728 50.0816
10335.937500 109.214 45.5287
10410.835964 109.649 40.6143
10486.277173 110.036 35.4387
10562.265060 110.381 30.0758
10638.803587 110.693 24.5702
10715.896743 110.978 18.9376
10793.548548 111.243 13.1695
10871.763050 111.492 7.2391
10950.544327 111.725 1.1097
11029.896485 111.940 -5.2563
11109.823662 112.130 -11.8890
11190.330024 112.286 -18.8049
11271.419768 112.398 -25.9998
11353.097122 112.454 -33.4465
11435.366344 112.445 -41.0941
11518.231722 112.362 -48.8694
11601.697577 112.199 -56.6837
11685.768261 111.955 -64.4384
11770.448155 111.631 -72.0346
11855.741674 111.235 -79.3807
11941.653265 110.775 -86.3994
12028.187408 110.262 -93.0312
12115.348612 109.710 -99.2377
12203.141422 109.131 -105.0004
12291.570415 108.540 -110.3194
12380.640201 107.948 -115.2096
12470.355424 107.366 -119.6981
12560.720760 106.805 -123.8210
12651.740920 106.271 -127.6221
12743.420650 105.772 -131.1482
12835.764729 105.312 -134.4478
12928.777972 104.895 -137.5674
13022.465227 104.524 -140.5514
13116.831378 104.200 -143.4414
13211.881345 103.926 -146.2788
13307.620084 103.704 -149.1057
13404.052584 103.534 -151.9668
13501.183875 103.417 -154.9109
13599.019019 103.356 -157.9924
13697.563116 103.349 -161.2723
13796.821305 103.396 -164.8197
13896.798760 103.495 -168.7102
13997.500692 103.639 -173.0240
14098.932352 103.822 -177.8430
14201.099028 104.032 176.7554
14304.006046 104.251 170.7048
14407.658770 104.459 163.9606
14512.062604 104.632 156.5146
14617.222992 104.742 148.4058
14723.145416 104.765 139.7273
14829.835397 104.677 130.6234
14937.298497 104.463 121.2781
15045.540320 104.118 111.8958
15154.566507 103.641 102.6803
15264.382743 103.044 93.8157
15374.994752 102.342 85.4526
15486.408302 101.555 77.6985
15598.629201 100.706 70.6155
15711.663298 99.818 64.2222
15825.516487 98.913 58.5001
15940.194703 98.010 53.4033
16055.703925 97.128 48.8658
16172.050174 96.282 44.8096
16289.239516 95.483 41.1525
16407.278061 94.738 37.8165
16526.171961 94.054 34.7363
16645.927415 93.434 31.8566
16766.550667 92.886 29.1234
16888.048005 92.416 26.4662
17010.425762 92.032 23.7789
17133.690320 91.744 20.9108
17257.848103 91.553 17.6709
17382.905584 91.455 13.8468
17508.869284 91.435 9.2324
17635.745768 91.465 3.6561
17763.541652 91.507 -2.9917
17892.263597 91.515 -10.7384
18021.918315 91.440 -19.5111
18152.512564 91.233 -29.1300
18284.053153 90.853 -39.3143
18416.546939 90.274 -49.7065
18550.000830 89.485 -59.9138
18684.421783 88.494 -69.5499
18819.816805 87.318 -78.2629
18956.192956 85.985 -85.7455
19093.557344 84.527 -91.7323
19231.917131 82.983 -96.0023
19371.279531 81.398 -98.4264
19511.651807 79.838 -99.1354
19653.041280 78.404 -98.8551
19795.455318 77.255 -99.1864
19938.901348 76.597 -102.2673
