* Measurement data measured by REW V5.31.3
* Source: Микрофон (2- CX31993 384Khz HIFI AUDIO), MICROPHONE (Общая громкость), R, volume: 0,000
* Format: 256k Log Swept Sine, 1 sweep at -20,0 dBFS with no timing reference
* Dated: 10.01.2025 13:42:43
* REW Settings:
*  C-weighting compensation: Off
*  Target level: 75.0 dB
* Note: 
* Measurement: JF11 tooclose
* Smoothing: 1/12 octave
* Frequency Step: 96 ppo
* Start Frequency: 20.141602 Hz
*
* Freq(Hz) SPL(dB) Phase(degrees)
20.141602 85.674 -88.1778
20.287556 85.699 -88.3028
20.434568 85.736 -88.4835
20.582645 85.782 -88.6987
20.731796 85.834 -88.9313
20.882027 85.889 -89.1704
21.033346 85.947 -89.4102
21.185763 86.007 -89.6493
21.339284 86.068 -89.8883
21.493917 86.129 -90.1293
21.649671 86.191 -90.3746
21.806553 86.252 -90.6260
21.964572 86.313 -90.8847
22.123737 86.374 -91.1513
22.284054 86.435 -91.4255
22.445534 86.495 -91.7068
22.608183 86.556 -91.9943
22.772012 86.617 -92.2869
22.937027 86.679 -92.5841
23.103238 86.742 -92.8851
23.270654 86.806 -93.1897
23.439282 86.871 -93.4978
23.609133 86.938 -93.8092
23.780215 87.006 -94.1236
23.952536 87.073 -94.4403
24.126106 87.141 -94.7584
24.300934 87.208 -95.0763
24.477028 87.274 -95.3923
24.654399 87.338 -95.7041
24.833055 87.399 -96.0098
25.013005 87.458 -96.3074
25.194260 87.515 -96.5957
25.376828 87.568 -96.8741
25.560719 87.620 -97.1431
25.745942 87.671 -97.4044
25.932508 87.720 -97.6606
26.120426 87.770 -97.9153
26.309705 87.819 -98.1726
26.500356 87.869 -98.4365
26.692388 87.920 -98.7106
26.885812 87.973 -98.9975
27.080638 88.027 -99.2985
27.276876 88.082 -99.6134
27.474535 88.139 -99.9404
27.673627 88.197 -100.2767
27.874161 88.256 -100.6189
28.076149 88.317 -100.9632
28.279600 88.379 -101.3061
28.484526 88.442 -101.6445
28.690937 88.507 -101.9762
28.898843 88.572 -102.2991
29.108256 88.638 -102.6120
29.319186 88.704 -102.9135
29.531645 88.770 -103.2030
29.745644 88.835 -103.4801
29.961193 88.900 -103.7456
30.178304 88.965 -104.0019
30.396989 89.030 -104.2526
30.617258 89.095 -104.5035
30.839123 89.161 -104.7608
31.062596 89.225 -105.0308
31.287688 89.289 -105.3183
31.514412 89.350 -105.6253
31.742778 89.408 -105.9504
31.972800 89.462 -106.2892
32.204488 89.512 -106.6352
32.437855 89.559 -106.9814
32.672913 89.603 -107.3230
32.909674 89.645 -107.6580
33.148151 89.688 -107.9886
33.388356 89.732 -108.3202
33.630302 89.777 -108.6595
33.874001 89.824 -109.0118
34.119466 89.872 -109.3791
34.366710 89.920 -109.7585
34.615745 89.968 -110.1425
34.866585 90.017 -110.5214
35.119243 90.066 -110.8859
35.373731 90.117 -111.2300
35.630064 90.173 -111.5535
35.888254 90.232 -111.8612
36.148315 90.296 -112.1621
36.410261 90.362 -112.4660
36.674104 90.429 -112.7803
36.939860 90.494 -113.1082
37.207542 90.555 -113.4482
37.477163 90.610 -113.7956
37.748738 90.660 -114.1449
38.022281 90.705 -114.4915
38.297806 90.746 -114.8338
38.575327 90.786 -115.1723
38.854860 90.825 -115.5089
39.136419 90.864 -115.8447
39.420017 90.905 -116.1794
39.705671 90.948 -116.5108
39.993395 90.992 -116.8366
40.283203 91.039 -117.1557
40.575112 91.089 -117.4703
40.869136 91.140 -117.7854
41.165290 91.193 -118.1089
41.463591 91.247 -118.4485
41.764053 91.300 -118.8102
42.066693 91.351 -119.1961
42.371525 91.400 -119.6041
42.678567 91.446 -120.0278
42.987834 91.489 -120.4575
43.299341 91.532 -120.8818
43.613106 91.574 -121.2895
43.929145 91.616 -121.6714
44.247473 91.660 -122.0228
44.568109 91.705 -122.3445
44.891068 91.754 -122.6437
45.216367 91.804 -122.9320
45.544023 91.856 -123.2223
45.874054 91.910 -123.5256
46.206476 91.963 -123.8479
46.541307 92.017 -124.1898
46.878565 92.071 -124.5480
47.218266 92.125 -124.9179
47.560429 92.180 -125.2959
47.905072 92.235 -125.6802
48.252212 92.286 -126.0695
48.601867 92.333 -126.4613
48.954056 92.372 -126.8514
49.308798 92.403 -127.2343
49.666109 92.427 -127.6061
50.026010 92.446 -127.9664
50.388520 92.463 -128.3188
50.753656 92.483 -128.6701
51.121437 92.507 -129.0269
51.491884 92.538 -129.3942
51.865016 92.575 -129.7737
52.240851 92.615 -130.1644
52.619410 92.658 -130.5638
53.000712 92.700 -130.9684
53.384777 92.739 -131.3746
53.771625 92.775 -131.7798
54.161276 92.807 -132.1820
54.553751 92.838 -132.5804
54.949070 92.868 -132.9754
55.347254 92.899 -133.3680
55.748323 92.930 -133.7596
56.152298 92.963 -134.1530
56.559201 92.995 -134.5517
56.969052 93.028 -134.9599
57.381873 93.059 -135.3804
57.797686 93.089 -135.8130
58.216512 93.119 -136.2535
58.638373 93.149 -136.6953
59.063291 93.179 -137.1312
59.491288 93.212 -137.5557
59.922386 93.245 -137.9661
60.356608 93.279 -138.3628
60.793977 93.312 -138.7492
61.234515 93.344 -139.1301
61.678246 93.375 -139.5099
62.125192 93.403 -139.8907
62.575377 93.431 -140.2716
63.028824 93.457 -140.6509
63.485557 93.485 -141.0280
63.945599 93.512 -141.4041
64.408975 93.539 -141.7806
64.875709 93.565 -142.1577
65.345825 93.589 -142.5344
65.819348 93.613 -142.9110
66.296302 93.636 -143.2907
66.776713 93.658 -143.6785
67.260604 93.681 -144.0784
67.748002 93.702 -144.4906
68.238932 93.722 -144.9127
68.733420 93.741 -145.3415
69.231490 93.759 -145.7739
69.733170 93.777 -146.2074
70.238485 93.794 -146.6391
70.747463 93.812 -147.0659
71.260128 93.829 -147.4856
71.776508 93.847 -147.8973
72.296630 93.865 -148.3009
72.820521 93.884 -148.6972
73.348209 93.901 -149.0879
73.879720 93.918 -149.4754
74.415083 93.934 -149.8612
74.954326 93.949 -150.2445
75.497475 93.962 -150.6228
76.044561 93.974 -150.9943
76.595612 93.985 -151.3599
77.150655 93.996 -151.7234
77.709720 94.005 -152.0893
78.272837 94.013 -152.4607
78.840034 94.020 -152.8386
79.411342 94.027 -153.2224
79.986789 94.035 -153.6107
80.566406 94.044 -154.0012
81.150224 94.053 -154.3918
81.738272 94.062 -154.7809
82.330581 94.071 -155.1678
82.927182 94.079 -155.5521
83.528107 94.087 -155.9337
84.133386 94.094 -156.3131
84.743051 94.101 -156.6922
85.357134 94.107 -157.0727
85.975667 94.111 -157.4537
86.598682 94.114 -157.8320
87.226212 94.116 -158.2042
87.858289 94.118 -158.5693
88.494946 94.120 -158.9292
89.136217 94.123 -159.2874
89.782135 94.125 -159.6471
90.432733 94.127 -160.0096
91.088046 94.130 -160.3738
91.748108 94.132 -160.7373
92.412952 94.134 -161.0976
93.082615 94.135 -161.4532
93.757130 94.136 -161.8051
94.436533 94.135 -162.1549
95.120859 94.134 -162.5041
95.810144 94.131 -162.8537
96.504423 94.128 -163.2041
97.203734 94.125 -163.5554
97.908112 94.121 -163.9061
98.617595 94.117 -164.2546
99.332219 94.113 -164.5992
100.052021 94.108 -164.9393
100.777039 94.103 -165.2749
101.507311 94.098 -165.6077
102.242875 94.093 -165.9394
102.983769 94.088 -166.2710
103.730032 94.083 -166.6027
104.481702 94.079 -166.9340
105.238820 94.074 -167.2643
106.001424 94.068 -167.5929
106.769554 94.061 -167.9194
107.543250 94.054 -168.2433
108.322553 94.045 -168.5636
109.107503 94.035 -168.8786
109.898141 94.024 -169.1879
110.694508 94.013 -169.4929
111.496646 94.001 -169.7953
112.304596 93.989 -170.0968
113.118402 93.977 -170.3985
113.938104 93.966 -170.7016
114.763747 93.954 -171.0061
115.595372 93.941 -171.3108
116.433024 93.929 -171.6127
117.276746 93.916 -171.9088
118.126581 93.904 -172.1977
118.982575 93.891 -172.4811
119.844772 93.878 -172.7616
120.713217 93.865 -173.0414
121.587954 93.852 -173.3214
122.469031 93.839 -173.6013
123.356492 93.826 -173.8794
124.250384 93.814 -174.1545
125.150753 93.801 -174.4264
126.057647 93.789 -174.6963
126.971113 93.778 -174.9652
127.891198 93.765 -175.2330
128.817950 93.752 -175.4991
129.751418 93.737 -175.7636
130.691651 93.720 -176.0268
131.638696 93.701 -176.2888
132.592604 93.682 -176.5488
133.553425 93.663 -176.8053
134.521208 93.643 -177.0570
135.496004 93.624 -177.3034
136.477864 93.605 -177.5446
137.466839 93.586 -177.7810
138.462981 93.568 -178.0144
139.466340 93.550 -178.2478
140.476971 93.533 -178.4839
141.494925 93.517 -178.7230
142.520256 93.501 -178.9626
143.553016 93.484 -179.1993
144.593260 93.468 -179.4301
145.641043 93.452 -179.6541
146.696418 93.435 -179.8724
147.759441 93.417 179.9126
148.830166 93.397 179.6970
149.908651 93.377 179.4774
150.994951 93.357 179.2533
152.089123 93.337 179.0273
153.191223 93.319 178.8035
154.301310 93.300 178.5847
155.419441 93.282 178.3713
156.545674 93.263 178.1630
157.680069 93.243 177.9592
158.822683 93.223 177.7598
159.973578 93.202 177.5652
161.132813 93.181 177.3757
162.300447 93.160 177.1910
163.476543 93.138 177.0099
164.661162 93.116 176.8304
165.854364 93.094 176.6509
167.056213 93.072 176.4702
168.266772 93.050 176.2880
169.486102 93.028 176.1050
170.714268 93.005 175.9221
171.951334 92.982 175.7404
173.197364 92.959 175.5604
174.452424 92.936 175.3826
175.716578 92.913 175.2070
176.989893 92.890 175.0334
178.272434 92.868 174.8619
179.564270 92.846 174.6920
180.865467 92.824 174.5232
182.176092 92.802 174.3553
183.496216 92.780 174.1889
184.825905 92.758 174.0261
186.165229 92.736 173.8691
187.514259 92.714 173.7185
188.873065 92.691 173.5726
190.241717 92.669 173.4286
191.620287 92.646 173.2843
193.008847 92.624 173.1385
194.407468 92.601 172.9924
195.816225 92.578 172.8481
197.235190 92.556 172.7069
198.664438 92.534 172.5685
200.104042 92.512 172.4313
201.554078 92.491 172.2944
203.014622 92.469 172.1578
204.485750 92.446 172.0222
205.967538 92.424 171.8889
207.460064 92.401 171.7588
208.963405 92.377 171.6328
210.477640 92.354 171.5116
212.002848 92.331 171.3956
213.539108 92.307 171.2846
215.086500 92.284 171.1783
216.645105 92.260 171.0753
218.215005 92.236 170.9736
219.796281 92.212 170.8702
221.389015 92.189 170.7618
222.993292 92.167 170.6469
224.609193 92.145 170.5271
226.236804 92.124 170.4061
227.876209 92.103 170.2872
229.527494 92.081 170.1727
231.190745 92.059 170.0627
232.866048 92.037 169.9562
234.553491 92.013 169.8517
236.253163 91.989 169.7487
237.965150 91.965 169.6470
239.689544 91.940 169.5468
241.426433 91.915 169.4492
243.175909 91.890 169.3550
244.938062 91.865 169.2648
246.712984 91.840 169.1783
248.500768 91.814 169.0950
250.301507 91.789 169.0137
252.115295 91.764 168.9332
253.942226 91.738 168.8530
255.782396 91.713 168.7732
257.635901 91.688 168.6940
259.502837 91.663 168.6160
261.383301 91.638 168.5396
263.277392 91.613 168.4646
265.185209 91.589 168.3907
267.106850 91.564 168.3176
269.042417 91.540 168.2451
270.992009 91.516 168.1733
272.955729 91.493 168.1022
274.933678 91.470 168.0316
276.925961 91.447 167.9618
278.932681 91.425 167.8939
280.953942 91.403 167.8288
282.989850 91.381 167.7670
285.040511 91.358 167.7083
287.106032 91.335 167.6516
289.186521 91.312 167.5952
291.282086 91.287 167.5398
293.392836 91.263 167.4874
295.518881 91.238 167.4388
297.660333 91.213 167.3927
299.817302 91.189 167.3474
301.989902 91.164 167.3023
304.178245 91.140 167.2575
306.382446 91.116 167.2128
308.602620 91.092 167.1677
310.838882 91.070 167.1216
313.091348 91.047 167.0749
315.360137 91.024 167.0269
317.645367 91.000 166.9773
319.947156 90.975 166.9280
322.265625 90.951 166.8823
324.600895 90.926 166.8424
326.953086 90.902 166.8087
329.322323 90.879 166.7790
331.708729 90.856 166.7505
334.112427 90.833 166.7209
336.533543 90.811 166.6896
338.972204 90.790 166.6586
341.428536 90.768 166.6304
343.902668 90.747 166.6065
346.394729 90.725 166.5876
348.904848 90.703 166.5730
351.433156 90.680 166.5620
353.979786 90.658 166.5545
356.544869 90.637 166.5508
359.128540 90.615 166.5509
361.730934 90.595 166.5531
364.352185 90.575 166.5549
366.992431 90.557 166.5529
369.651810 90.540 166.5439
372.330459 90.524 166.5255
375.028519 90.508 166.4955
377.746130 90.490 166.4533
380.483434 90.472 166.3998
383.240574 90.451 166.3387
386.017693 90.429 166.2747
388.814937 90.404 166.2122
391.632450 90.378 166.1534
394.470380 90.352 166.0995
397.328875 90.326 166.0514
400.208084 90.300 166.0103
403.108157 90.274 165.9769
406.029245 90.248 165.9503
408.971500 90.221 165.9289
411.935076 90.192 165.9109
414.920127 90.162 165.8959
417.926810 90.130 165.8859
420.955280 90.097 165.8843
424.005695 90.062 165.8953
427.078215 90.027 165.9237
430.173000 89.990 165.9751
433.290211 89.954 166.0540
436.430010 89.920 166.1615
439.592562 89.889 166.2953
442.778031 89.863 166.4493
445.986583 89.842 166.6122
449.218386 89.827 166.7692
452.473607 89.818 166.9060
455.752418 89.812 167.0119
459.054987 89.809 167.0818
462.381489 89.806 167.1170
465.732096 89.802 167.1231
469.106983 89.796 167.1086
472.506325 89.789 167.0823
475.930301 89.780 167.0506
479.379088 89.770 167.0173
482.852867 89.758 166.9841
486.351817 89.745 166.9525
489.876123 89.731 166.9233
493.425968 89.716 166.8976
497.001536 89.701 166.8761
500.603014 89.685 166.8590
504.230589 89.668 166.8461
507.884452 89.650 166.8359
511.564792 89.631 166.8267
515.271802 89.611 166.8174
519.005673 89.591 166.8076
522.766602 89.571 166.7988
526.554785 89.549 166.7930
530.370418 89.528 166.7916
534.213700 89.506 166.7939
538.084833 89.485 166.7988
541.984018 89.463 166.8051
545.911457 89.442 166.8123
549.867357 89.421 166.8192
553.851922 89.400 166.8246
557.865362 89.379 166.8283
561.907884 89.358 166.8307
565.979700 89.338 166.8326
570.081022 89.317 166.8350
574.212064 89.295 166.8384
578.373042 89.274 166.8436
582.564171 89.253 166.8508
586.785671 89.232 166.8596
591.037762 89.212 166.8689
595.320665 89.191 166.8773
599.634604 89.171 166.8843
603.979804 89.150 166.8904
608.356491 89.130 166.8965
612.764893 89.108 166.9036
617.205240 89.087 166.9116
621.677763 89.065 166.9204
626.182696 89.044 166.9299
630.720274 89.022 166.9406
635.290733 89.001 166.9526
639.894312 88.979 166.9658
644.531250 88.957 166.9800
649.201789 88.935 166.9951
653.906173 88.911 167.0117
658.644647 88.887 167.0304
663.417457 88.862 167.0511
668.224854 88.837 167.0732
673.067086 88.811 167.0956
677.944408 88.785 167.1179
682.857073 88.758 167.1395
687.805336 88.731 167.1608
692.789457 88.704 167.1831
697.809695 88.675 167.2079
702.866312 88.646 167.2362
707.959571 88.617 167.2681
713.089738 88.586 167.3027
718.257080 88.556 167.3381
723.461867 88.526 167.3721
728.704370 88.495 167.4035
733.984862 88.465 167.4338
739.303619 88.435 167.4658
744.660918 88.404 167.5018
750.057038 88.373 167.5439
755.492260 88.341 167.5933
760.966869 88.308 167.6498
766.481148 88.274 167.7125
772.035387 88.239 167.7799
777.629873 88.204 167.8513
783.264900 88.167 167.9268
788.940760 88.130 168.0079
794.657750 88.093 168.0961
800.416168 88.055 168.1914
806.216313 88.017 168.2935
812.058489 87.978 168.4024
817.943000 87.938 168.5186
823.870152 87.898 168.6429
829.840255 87.857 168.7752
835.853619 87.816 168.9155
841.910559 87.775 169.0634
848.011390 87.733 169.2188
854.156430 87.691 169.3816
860.346000 87.650 169.5518
866.580422 87.609 169.7294
872.860020 87.568 169.9145
879.185124 87.528 170.1077
885.556062 87.488 170.3100
891.973166 87.449 170.5227
898.436771 87.410 170.7460
904.947215 87.371 170.9793
911.504835 87.332 171.2227
918.109975 87.293 171.4763
924.762978 87.255 171.7406
931.464192 87.218 172.0156
938.213966 87.181 172.3004
945.012651 87.144 172.5942
951.860602 87.109 172.8963
958.758176 87.074 173.2066
965.705733 87.040 173.5257
972.703635 87.007 173.8540
979.752246 86.976 174.1919
986.851935 86.945 174.5393
994.003071 86.917 174.8959
1001.206027 86.890 175.2611
1008.461179 86.864 175.6339
1015.768904 86.840 176.0129
1023.129584 86.817 176.3972
1030.543603 86.795 176.7855
1038.011347 86.776 177.1767
1045.533205 86.758 177.5701
1053.109569 86.743 177.9657
1060.740836 86.729 178.3637
1068.427401 86.718 178.7639
1076.169666 86.708 179.1655
1083.968035 86.701 179.5678
1091.822915 86.694 179.9697
1099.734713 86.690 -179.6300
1107.703844 86.687 -179.2319
1115.730723 86.685 -178.8359
1123.815768 86.685 -178.4412
1131.959400 86.687 -178.0470
1140.162045 86.689 -177.6526
1148.424129 86.693 -177.2580
1156.746083 86.698 -176.8638
1165.128342 86.704 -176.4709
1173.571343 86.712 -176.0796
1182.075524 86.720 -175.6902
1190.641331 86.730 -175.3028
1199.269209 86.741 -174.9177
1207.959608 86.753 -174.5355
1216.712981 86.767 -174.1577
1225.529785 86.782 -173.7862
1234.410479 86.798 -173.4225
1243.355526 86.815 -173.0670
1252.365393 86.833 -172.7185
1261.440549 86.852 -172.3748
1270.581467 86.872 -172.0334
1279.788624 86.892 -171.6925
1289.062500 86.913 -171.3513
1298.403578 86.934 -171.0101
1307.812346 86.956 -170.6694
1317.289293 86.979 -170.3305
1326.834914 87.002 -169.9940
1336.449707 87.026 -169.6594
1346.134173 87.050 -169.3256
1355.888816 87.075 -168.9914
1365.714145 87.100 -168.6565
1375.610673 87.126 -168.3218
1385.578915 87.152 -167.9890
1395.619391 87.179 -167.6595
1405.732624 87.207 -167.3339
1415.919142 87.236 -167.0119
1426.179476 87.265 -166.6931
1436.514160 87.296 -166.3768
1446.923734 87.327 -166.0623
1457.408740 87.359 -165.7489
1467.969724 87.392 -165.4366
1478.607238 87.425 -165.1264
1489.321836 87.460 -164.8195
1500.114076 87.496 -164.5166
1510.984521 87.534 -164.2176
1521.933737 87.572 -163.9221
1532.962297 87.611 -163.6299
1544.070773 87.652 -163.3403
1555.259747 87.693 -163.0525
1566.529800 87.736 -162.7661
1577.881521 87.780 -162.4813
1589.315501 87.825 -162.1990
1600.832336 87.871 -161.9199
1612.432627 87.918 -161.6443
1624.116978 87.966 -161.3719
1635.886000 88.015 -161.1022
1647.740304 88.066 -160.8348
1659.680509 88.118 -160.5695
1671.707238 88.171 -160.3065
1683.821118 88.226 -160.0459
1696.022780 88.282 -159.7884
1708.312860 88.340 -159.5351
1720.692000 88.400 -159.2873
1733.160843 88.461 -159.0462
1745.720041 88.524 -158.8126
1758.370248 88.590 -158.5871
1771.112124 88.657 -158.3704
1783.946332 88.725 -158.1632
1796.873543 88.796 -157.9665
1809.894429 88.869 -157.7814
1823.009670 88.943 -157.6092
1836.219950 89.020 -157.4507
1849.525956 89.098 -157.3064
1862.928384 89.177 -157.1771
1876.427931 89.258 -157.0639
1890.025301 89.341 -156.9679
1903.721204 89.424 -156.8898
1917.516352 89.510 -156.8295
1931.411466 89.596 -156.7869
1945.407270 89.683 -156.7618
1959.504493 89.772 -156.7547
1973.703870 89.862 -156.7668
1988.006142 89.952 -156.7997
2002.412054 90.044 -156.8553
2016.922357 90.136 -156.9347
2031.537808 90.228 -157.0386
2046.259169 90.320 -157.1673
2061.087206 90.413 -157.3211
2076.022694 90.505 -157.5004
2091.066410 90.597 -157.7056
2106.219139 90.689 -157.9366
2121.481671 90.779 -158.1928
2136.854802 90.869 -158.4734
2152.339333 90.957 -158.7782
2167.936071 91.044 -159.1074
2183.645829 91.130 -159.4619
2199.469427 91.214 -159.8423
2215.407689 91.297 -160.2496
2231.461446 91.378 -160.6846
2247.631536 91.457 -161.1480
2263.918800 91.533 -161.6407
2280.324089 91.606 -162.1628
2296.848258 91.676 -162.7138
2313.492167 91.743 -163.2932
2330.256685 91.805 -163.9003
2347.142685 91.863 -164.5343
2364.151049 91.916 -165.1941
2381.282662 91.963 -165.8778
2398.538418 92.004 -166.5825
2415.919216 92.039 -167.3040
2433.425962 92.065 -168.0356
2451.059570 92.084 -168.7686
2468.820958 92.095 -169.4931
2486.711052 92.100 -170.2003
2504.730786 92.098 -170.8855
2522.881098 92.093 -171.5480
2541.162934 92.084 -172.1891
2559.577248 92.073 -172.8103
2578.125000 92.061 -173.4158
2596.807157 92.049 -174.0157
2615.624692 92.036 -174.6240
2634.578586 92.022 -175.2511
2653.669829 92.003 -175.8975
2672.899414 91.977 -176.5554
2692.268345 91.945 -177.2132
2711.777632 91.905 -177.8607
2731.428290 91.858 -178.4899
2751.221345 91.805 -179.0958
2771.157829 91.747 -179.6753
2791.238781 91.685 179.7735
2811.465248 91.618 179.2513
2831.838284 91.548 178.7585
2852.358952 91.474 178.2950
2873.028321 91.398 177.8611
2893.847468 91.320 177.4574
2914.817480 91.239 177.0843
2935.939449 91.156 176.7422
2957.214476 91.072 176.4312
2978.643672 90.987 176.1509
3000.228152 90.900 175.9009
3021.969041 90.813 175.6806
3043.867475 90.725 175.4891
3065.924593 90.638 175.3257
3088.141547 90.549 175.1895
3110.519493 90.461 175.0800
3133.059600 90.373 174.9965
3155.763041 90.285 174.9383
3178.631001 90.198 174.9047
3201.664672 90.111 174.8950
3224.865254 90.024 174.9092
3248.233957 89.938 174.9472
3271.771999 89.853 175.0087
3295.480608 89.769 175.0939
3319.361019 89.686 175.2026
3343.414477 89.603 175.3344
3367.642236 89.522 175.4888
3392.045560 89.443 175.6651
3416.625721 89.365 175.8624
3441.383999 89.288 176.0802
3466.321686 89.214 176.3179
3491.440082 89.141 176.5757
3516.740496 89.070 176.8541
3542.224247 89.001 177.1534
3567.892664 88.934 177.4743
3593.747085 88.869 177.8171
3619.788858 88.808 178.1820
3646.019340 88.750 178.5690
3672.439900 88.695 178.9772
3699.051913 88.645 179.4034
3725.856768 88.600 179.8416
3752.855862 88.561 -179.7173
3780.050603 88.526 -179.2831
3807.442408 88.495 -178.8633
3835.032705 88.466 -178.4602
3862.822933 88.437 -178.0700
3890.814540 88.408 -177.6846
3919.008986 88.378 -177.2950
3947.407741 88.348 -176.8938
3976.012284 88.317 -176.4768
4004.824108 88.288 -176.0422
4033.844715 88.259 -175.5894
4063.075616 88.232 -175.1179
4092.518337 88.206 -174.6261
4122.174412 88.181 -174.1109
4152.045387 88.159 -173.5678
4182.132820 88.139 -172.9913
4212.438278 88.124 -172.3778
4242.963342 88.115 -171.7280
4273.709604 88.113 -171.0484
4304.678665 88.120 -170.3495
4335.872141 88.135 -169.6417
4367.291658 88.158 -168.9317
4398.938854 88.189 -168.2213
4430.815378 88.227 -167.5089
4462.922893 88.273 -166.7920
4495.263072 88.328 -166.0704
4527.837601 88.393 -165.3476
4560.648179 88.470 -164.6309
4593.696515 88.558 -163.9312
4626.984334 88.660 -163.2623
4660.513370 88.773 -162.6392
4694.285371 88.898 -162.0759
4728.302098 89.033 -161.5839
4762.565324 89.176 -161.1703
4797.076835 89.325 -160.8379
4831.838432 89.478 -160.5857
4866.851925 89.635 -160.4090
4902.119140 89.794 -160.3006
4937.641916 89.955 -160.2517
4973.422105 90.120 -160.2539
5009.461572 90.291 -160.3037
5045.762195 90.470 -160.4066
5082.325868 90.660 -160.5796
5119.154496 90.861 -160.8513
5156.250000 91.072 -161.2558
5193.614313 91.290 -161.8247
5231.249383 91.510 -162.5787
5269.157173 91.724 -163.5228
5307.339658 91.929 -164.6478
5345.798829 92.121 -165.9371
5384.536691 92.295 -167.3725
5423.555263 92.452 -168.9371
5462.856580 92.590 -170.6161
5502.442691 92.709 -172.3969
5542.315659 92.807 -174.2694
5582.477563 92.883 -176.2249
5622.930497 92.937 -178.2549
5663.676569 92.966 179.6506
5704.717904 92.969 177.5037
5746.056642 92.945 175.3190
5787.694937 92.893 173.1137
5829.634960 92.811 170.9061
5871.878898 92.699 168.7152
5914.428953 92.557 166.5605
5957.287343 92.384 164.4616
6000.456303 92.182 162.4399
6043.938083 91.949 160.5183
6087.734950 91.687 158.7224
6131.849187 91.397 157.0803
6176.283094 91.080 155.6219
6221.038987 90.741 154.3756
6266.119200 90.384 153.3651
6311.526083 90.015 152.6057
6357.262002 89.640 152.1011
6403.329344 89.266 151.8438
6449.730508 88.897 151.8176
6496.467914 88.537 152.0030
6543.543998 88.190 152.3818
6590.961215 87.855 152.9414
6638.722037 87.535 153.6776
6686.828954 87.230 154.5966
6735.284473 86.942 155.7190
6784.091120 86.676 157.0786
6833.251441 86.442 158.7120
6882.767998 86.256 160.6310
6932.643372 86.137 162.7846
6982.880164 86.105 165.0323
7033.480992 86.167 167.1520
7084.448495 86.315 168.8931
7135.785329 86.525 170.0547
7187.494171 86.760 170.5477
7239.577717 86.988 170.4041
7292.038681 87.182 169.7395
7344.879799 87.330 168.6985
7398.103826 87.426 167.4144
7451.713536 87.474 165.9904
7505.711724 87.477 164.4981
7560.101205 87.440 162.9849
7614.884815 87.366 161.4846
7670.065409 87.259 160.0261
7725.645865 87.122 158.6374
7781.629080 86.960 157.3433
7838.017972 86.779 156.1584
7894.815481 86.586 155.0797
7952.024569 86.387 154.0825
8009.648217 86.187 153.1261
8067.689429 85.984 152.1665
8126.151233 85.774 151.1708
8185.036674 85.553 150.1258
8244.348824 85.312 149.0398
8304.090774 85.047 147.9391
8364.265639 84.751 146.8627
8424.876556 84.423 145.8580
8485.926684 84.062 144.9768
8547.419207 83.670 144.2715
8609.357330 83.250 143.7914
8671.744282 82.807 143.5795
8734.583316 82.350 143.6691
8797.877707 81.886 144.0823
8861.630756 81.426 144.8260
8925.845785 80.979 145.8873
8990.526143 80.558 147.2287
9055.675202 80.171 148.7869
9121.296357 79.824 150.4757
9187.393031 79.519 152.1990
9253.968668 79.251 153.8698
9321.026740 79.012 155.4297
9388.570742 78.788 156.8614
9456.604196 78.570 158.1884
9525.130648 78.348 159.4662
9594.153671 78.120 160.7660
9663.676863 77.888 162.1573
9733.703850 77.657 163.6935
9804.238280 77.438 165.3996
9875.283832 77.244 167.2641
9946.844210 77.087 169.2338
10018.923143 76.977 171.2134
10091.524390 76.920 173.0737
10164.651736 76.912 174.6696
10238.308993 76.942 175.8655
10312.500000 76.992 176.5616
10387.228626 77.036 176.7142
10462.498767 77.048 176.3438
10538.314345 77.001 175.5325
10614.679315 76.875 174.4160
10691.597657 76.652 173.1743
10769.073381 76.325 172.0213
10847.110526 75.895 171.1914
10925.713161 75.372 170.9186
11004.885382 74.780 171.4046
11084.631318 74.152 172.7792
11164.955126 73.528 175.0648
11245.860993 72.944 178.1622
11327.353138 72.434 -178.1265
11409.435808 72.014 -174.0440
11492.113283 71.688 -169.8141
11575.389873 71.452 -165.6013
11659.269920 71.293 -161.5017
11743.757796 71.201 -157.5594
11828.857906 71.164 -153.7879
11914.574686 71.174 -150.1856
12000.912606 71.228 -146.7448
12087.876166 71.320 -143.4550
12175.469900 71.452 -140.3045
12263.698373 71.624 -137.2833
12352.566187 71.842 -134.3902
12442.077974 72.113 -131.6450
12532.238400 72.444 -129.1010
12623.052165 72.844 -126.8561
12714.524005 73.311 -125.0530
12806.658687 73.838 -123.8631
12899.461015 74.404 -123.4534
12992.935827 74.981 -123.9497
13087.087996 75.531 -125.4113
13181.922430 76.017 -127.8195
13277.444074 76.398 -131.0737
13373.657907 76.642 -134.9929
13470.568945 76.724 -139.3228
13568.182241 76.630 -143.7552
13666.502883 76.365 -147.9637
13765.535996 75.948 -151.6494
13865.286744 75.416 -154.5867
13965.760328 74.816 -156.6635
14066.961984 74.201 -157.9135
14168.896989 73.622 -158.5246
14271.570658 73.113 -158.8015
14374.988342 72.682 -159.0789
14479.155433 72.312 -159.6179
14584.077362 71.964 -160.5383
14689.759598 71.599 -161.8114
14796.207652 71.181 -163.2988
14903.427072 70.690 -164.8091
15011.423448 70.122 -166.1485
15120.202410 69.480 -167.1573
15229.769630 68.780 -167.7286
15340.130819 68.039 -167.8113
15451.291730 67.275 -167.4020
15563.258160 66.503 -166.5302
15676.035944 65.735 -165.2439
15789.630962 64.979 -163.5979
15904.049137 64.240 -161.6468
16019.296433 63.523 -159.4420
16135.378859 62.825 -157.0287
16252.302465 62.146 -154.4394
16370.073348 61.478 -151.6881
16488.697648 60.817 -148.7682
16608.181548 60.158 -145.6514
16728.531278 59.497 -142.2838
16849.753112 58.832 -138.5826
16971.853368 58.166 -134.4379
17094.838414 57.507 -129.7242
17218.714660 56.873 -124.3241
17343.488565 56.288 -118.1729
17469.166632 55.783 -111.3096
17595.755415 55.387 -103.9077
17723.261512 55.124 -96.2535
17851.691571 55.002 -88.6844
17981.052287 55.014 -81.5237
18111.350404 55.141 -75.0402
18242.592715 55.357 -69.4298
18374.786062 55.628 -64.8105
18507.937336 55.918 -61.2249
18642.053479 56.191 -58.6495
18777.141484 56.409 -57.0003
18913.208391 56.537 -56.1315
19050.261296 56.547 -55.8352
19188.307342 56.418 -55.8551
19327.353727 56.145 -55.9149
19467.407699 55.742 -55.7661
19608.476560 55.251 -55.2572
19750.567664 54.740 -54.4072
19893.688419 54.307 -53.4544
20037.846286 54.057 -52.8044
