* Measurement data measured by REW V5.20.9
* Source: Input device not selected, no input selected, L, volume: no control. Timing signal peak level 0,0 dBFS, measurement signal peak level zero
* Format: 256k Log Swept Sine, 1 sweep at -12,0 dBFS using an acoustic timing reference
* Dated: 26.12.2022 21:59:23
* REW Settings:
*  C-weighting compensation: Off
*  Target level: 75.0 dB
* Note: 
* Measurement: TG335SR
* Smoothing: 1/12 octave
* Frequency Step: 96 ppo
* Start Frequency: 20.141602 Hz
*
* Freq(Hz) SPL(dB) Phase(degrees)
20.141602 124.691 -132.0114
20.287556 124.700 -132.1599
20.434568 124.714 -132.3788
20.582645 124.731 -132.6477
20.731796 124.750 -132.9493
20.882027 124.770 -133.2712
21.033346 124.791 -133.6052
21.185763 124.812 -133.9465
21.339284 124.834 -134.2924
21.493917 124.855 -134.6413
21.649671 124.877 -134.9922
21.806553 124.898 -135.3441
21.964572 124.920 -135.6964
22.123737 124.942 -136.0484
22.284054 124.963 -136.3991
22.445534 124.985 -136.7479
22.608183 125.005 -137.0939
22.772012 125.025 -137.4364
22.937027 125.044 -137.7749
23.103238 125.063 -138.1089
23.270654 125.080 -138.4384
23.439282 125.097 -138.7636
23.609133 125.114 -139.0853
23.780215 125.130 -139.4042
23.952536 125.145 -139.7216
24.126106 125.160 -140.0388
24.300934 125.175 -140.3573
24.477028 125.190 -140.6784
24.654399 125.205 -141.0029
24.833055 125.219 -141.3313
25.013005 125.234 -141.6638
25.194260 125.248 -141.9996
25.376828 125.261 -142.3376
25.560719 125.274 -142.6763
25.745942 125.286 -143.0138
25.932508 125.298 -143.3483
26.120426 125.310 -143.6782
26.309705 125.322 -144.0023
26.500356 125.333 -144.3200
26.692388 125.345 -144.6315
26.885812 125.357 -144.9376
27.080638 125.370 -145.2397
27.276876 125.383 -145.5393
27.474535 125.396 -145.8383
27.673627 125.410 -146.1384
27.874161 125.425 -146.4408
28.076149 125.439 -146.7462
28.279600 125.453 -147.0547
28.484526 125.466 -147.3657
28.690937 125.479 -147.6784
28.898843 125.492 -147.9915
29.108256 125.503 -148.3035
29.319186 125.515 -148.6133
29.531645 125.525 -148.9198
29.745644 125.536 -149.2223
29.961193 125.546 -149.5204
30.178304 125.556 -149.8142
30.396989 125.565 -150.1038
30.617258 125.574 -150.3899
30.839123 125.584 -150.6729
31.062596 125.593 -150.9536
31.287688 125.601 -151.2327
31.514412 125.610 -151.5110
31.742778 125.619 -151.7889
31.972800 125.627 -152.0672
32.204488 125.635 -152.3460
32.437855 125.644 -152.6255
32.672913 125.652 -152.9053
32.909674 125.659 -153.1852
33.148151 125.667 -153.4644
33.388356 125.675 -153.7422
33.630302 125.682 -154.0180
33.874001 125.689 -154.2911
34.119466 125.696 -154.5610
34.366710 125.703 -154.8271
34.615745 125.710 -155.0890
34.866585 125.716 -155.3462
35.119243 125.723 -155.5984
35.373731 125.729 -155.8454
35.630064 125.735 -156.0874
35.888254 125.741 -156.3250
36.148315 125.747 -156.5591
36.410261 125.754 -156.7913
36.674104 125.761 -157.0231
36.939860 125.768 -157.2557
37.207542 125.775 -157.4901
37.477163 125.782 -157.7264
37.748738 125.788 -157.9646
38.022281 125.793 -158.2043
38.297806 125.798 -158.4451
38.575327 125.802 -158.6869
38.854860 125.806 -158.9301
39.136419 125.810 -159.1752
39.420017 125.813 -159.4228
39.705671 125.817 -159.6731
39.993395 125.820 -159.9257
40.283203 125.825 -160.1797
40.575112 125.830 -160.4338
40.869136 125.837 -160.6864
41.165290 125.844 -160.9361
41.463591 125.852 -161.1816
41.764053 125.860 -161.4220
42.066693 125.869 -161.6568
42.371525 125.877 -161.8858
42.678567 125.885 -162.1097
42.987834 125.891 -162.3298
43.299341 125.896 -162.5479
43.613106 125.899 -162.7664
43.929145 125.901 -162.9869
44.247473 125.903 -163.2106
44.568109 125.905 -163.4375
44.891068 125.908 -163.6665
45.216367 125.912 -163.8964
45.544023 125.917 -164.1264
45.874054 125.924 -164.3557
46.206476 125.931 -164.5839
46.541307 125.937 -164.8094
46.878565 125.941 -165.0295
47.218266 125.942 -165.2406
47.560429 125.941 -165.4397
47.905072 125.938 -165.6269
48.252212 125.936 -165.8069
48.601867 125.935 -165.9886
48.954056 125.938 -166.1826
49.308798 125.944 -166.3973
49.666109 125.952 -166.6354
50.026010 125.961 -166.8929
50.388520 125.971 -167.1608
50.753656 125.979 -167.4288
51.121437 125.986 -167.6894
51.491884 125.991 -167.9397
51.865016 125.996 -168.1810
52.240851 126.000 -168.4170
52.619410 126.003 -168.6512
53.000712 126.005 -168.8857
53.384777 126.006 -169.1205
53.771625 126.007 -169.3549
54.161276 126.008 -169.5873
54.553751 126.008 -169.8164
54.949070 126.008 -170.0410
55.347254 126.007 -170.2606
55.748323 126.006 -170.4753
56.152298 126.004 -170.6863
56.559201 126.002 -170.8949
56.969052 126.000 -171.1023
57.381873 125.997 -171.3089
57.797686 125.994 -171.5141
58.216512 125.992 -171.7165
58.638373 125.989 -171.9150
59.063291 125.986 -172.1087
59.491288 125.983 -172.2978
59.922386 125.980 -172.4823
60.356608 125.977 -172.6628
60.793977 125.975 -172.8394
61.234515 125.972 -173.0124
61.678246 125.970 -173.1821
62.125192 125.968 -173.3488
62.575377 125.967 -173.5132
63.028824 125.967 -173.6761
63.485557 125.968 -173.8377
63.945599 125.970 -173.9984
64.408975 125.973 -174.1580
64.875709 125.977 -174.3168
65.345825 125.982 -174.4758
65.819348 125.987 -174.6371
66.296302 125.994 -174.8032
66.776713 126.001 -174.9769
67.260604 126.009 -175.1598
67.748002 126.017 -175.3529
68.238932 126.025 -175.5560
68.733420 126.034 -175.7691
69.231490 126.041 -175.9920
69.733170 126.048 -176.2242
70.238485 126.053 -176.4644
70.747463 126.058 -176.7110
71.260128 126.060 -176.9616
71.776508 126.062 -177.2139
72.296630 126.062 -177.4655
72.820521 126.061 -177.7150
73.348209 126.059 -177.9614
73.879720 126.056 -178.2044
74.415083 126.052 -178.4441
74.954326 126.047 -178.6807
75.497475 126.042 -178.9143
76.044561 126.036 -179.1449
76.595612 126.030 -179.3721
77.150655 126.023 -179.5957
77.709720 126.016 -179.8157
78.272837 126.008 179.9678
78.840034 126.001 179.7547
79.411342 125.993 179.5445
79.986789 125.985 179.3369
80.566406 125.978 179.1317
81.150224 125.970 178.9288
81.738272 125.962 178.7281
82.330581 125.954 178.5296
82.927182 125.946 178.3329
83.528107 125.937 178.1375
84.133386 125.929 177.9434
84.743051 125.920 177.7505
85.357134 125.912 177.5592
85.975667 125.903 177.3694
86.598682 125.894 177.1810
87.226212 125.886 176.9937
87.858289 125.877 176.8074
88.494946 125.868 176.6219
89.136217 125.859 176.4370
89.782135 125.850 176.2527
90.432733 125.841 176.0687
91.088046 125.832 175.8851
91.748108 125.823 175.7021
92.412952 125.813 175.5198
93.082615 125.804 175.3386
93.757130 125.794 175.1586
94.436533 125.784 174.9799
95.120859 125.773 174.8025
95.810144 125.762 174.6262
96.504423 125.751 174.4513
97.203734 125.740 174.2782
97.908112 125.729 174.1074
98.617595 125.717 173.9395
99.332219 125.706 173.7749
100.052021 125.694 173.6137
100.777039 125.682 173.4559
101.507311 125.671 173.3016
102.242875 125.659 173.1506
102.983769 125.648 173.0029
103.730032 125.637 172.8585
104.481702 125.626 172.7176
105.238820 125.614 172.5803
106.001424 125.603 172.4471
106.769554 125.593 172.3187
107.543250 125.583 172.1956
108.322553 125.574 172.0782
109.107503 125.566 171.9661
109.898141 125.560 171.8577
110.694508 125.556 171.7503
111.496646 125.554 171.6400
112.304596 125.555 171.5221
113.118402 125.557 171.3919
113.938104 125.561 171.2457
114.763747 125.566 171.0811
115.595372 125.570 170.8976
116.433024 125.573 170.6958
117.276746 125.575 170.4780
118.126581 125.574 170.2475
118.982575 125.571 170.0081
119.844772 125.566 169.7642
120.713217 125.559 169.5194
121.587954 125.549 169.2768
122.469031 125.538 169.0384
123.356492 125.526 168.8054
124.250384 125.513 168.5782
125.150753 125.498 168.3574
126.057647 125.483 168.1427
126.971113 125.468 167.9339
127.891198 125.452 167.7305
128.817950 125.436 167.5319
129.751418 125.419 167.3374
130.691651 125.402 167.1465
131.638696 125.386 166.9587
132.592604 125.369 166.7736
133.553425 125.352 166.5911
134.521208 125.335 166.4111
135.496004 125.318 166.2333
136.477864 125.301 166.0574
137.466839 125.284 165.8831
138.462981 125.267 165.7100
139.466340 125.250 165.5383
140.476971 125.232 165.3679
141.494925 125.215 165.1991
142.520256 125.197 165.0316
143.553016 125.179 164.8655
144.593260 125.161 164.7005
145.641043 125.143 164.5367
146.696418 125.125 164.3741
147.759441 125.107 164.2126
148.830166 125.089 164.0523
149.908651 125.070 163.8932
150.994951 125.052 163.7354
152.089123 125.033 163.5791
153.191223 125.015 163.4245
154.301310 124.996 163.2717
155.419441 124.978 163.1207
156.545674 124.959 162.9717
157.680069 124.940 162.8248
158.822683 124.921 162.6801
159.973578 124.903 162.5374
161.132813 124.884 162.3964
162.300447 124.865 162.2566
163.476543 124.847 162.1177
164.661162 124.828 161.9795
165.854364 124.810 161.8419
167.056213 124.792 161.7049
168.266772 124.775 161.5683
169.486102 124.758 161.4318
170.714268 124.741 161.2949
171.951334 124.725 161.1572
173.197364 124.709 161.0179
174.452424 124.693 160.8763
175.716578 124.677 160.7318
176.989893 124.661 160.5839
178.272434 124.645 160.4322
179.564270 124.629 160.2767
180.865467 124.612 160.1176
182.176092 124.595 159.9552
183.496216 124.577 159.7902
184.825905 124.559 159.6231
186.165229 124.540 159.4545
187.514259 124.521 159.2849
188.873065 124.501 159.1149
190.241717 124.481 158.9451
191.620287 124.460 158.7762
193.008847 124.438 158.6088
194.407468 124.416 158.4432
195.816225 124.393 158.2794
197.235190 124.370 158.1176
198.664438 124.347 157.9576
200.104042 124.323 157.7996
201.554078 124.299 157.6432
203.014622 124.275 157.4883
204.485750 124.250 157.3350
205.967538 124.225 157.1832
207.460064 124.200 157.0331
208.963405 124.174 156.8845
210.477640 124.149 156.7377
212.002848 124.123 156.5925
213.539108 124.097 156.4491
215.086500 124.070 156.3074
216.645105 124.043 156.1674
218.215005 124.016 156.0292
219.796281 123.989 155.8926
221.389015 123.962 155.7578
222.993292 123.934 155.6247
224.609193 123.906 155.4937
226.236804 123.878 155.3647
227.876209 123.849 155.2379
229.527494 123.821 155.1135
231.190745 123.792 154.9918
232.866048 123.762 154.8728
234.553491 123.733 154.7568
236.253163 123.703 154.6439
237.965150 123.673 154.5343
239.689544 123.643 154.4285
241.426433 123.613 154.3265
243.175909 123.583 154.2287
244.938062 123.554 154.1349
246.712984 123.524 154.0451
248.500768 123.494 153.9590
250.301507 123.465 153.8765
252.115295 123.437 153.7969
253.942226 123.409 153.7195
255.782396 123.381 153.6432
257.635901 123.354 153.5668
259.502837 123.328 153.4896
261.383301 123.301 153.4110
263.277392 123.275 153.3310
265.185209 123.248 153.2497
267.106850 123.222 153.1675
269.042417 123.195 153.0849
270.992009 123.168 153.0026
272.955729 123.140 152.9216
274.933678 123.112 152.8426
276.925961 123.084 152.7666
278.932681 123.056 152.6947
280.953942 123.027 152.6284
282.989850 122.998 152.5695
285.040511 122.968 152.5199
287.106032 122.940 152.4815
289.186521 122.912 152.4552
291.282086 122.886 152.4404
293.392836 122.862 152.4346
295.518881 122.841 152.4339
297.660333 122.824 152.4326
299.817302 122.810 152.4241
301.989902 122.799 152.4016
304.178245 122.791 152.3585
306.382446 122.784 152.2899
308.602620 122.779 152.1927
310.838882 122.773 152.0663
313.091348 122.765 151.9125
315.360137 122.755 151.7355
317.645367 122.742 151.5409
319.947156 122.726 151.3350
322.265625 122.706 151.1240
324.600895 122.682 150.9133
326.953086 122.656 150.7072
329.322323 122.626 150.5087
331.708729 122.595 150.3193
334.112427 122.563 150.1397
336.533543 122.529 149.9698
338.972204 122.494 149.8086
341.428536 122.458 149.6553
343.902668 122.421 149.5092
346.394729 122.385 149.3698
348.904848 122.347 149.2372
351.433156 122.310 149.1110
353.979786 122.272 148.9912
356.544869 122.233 148.8773
359.128540 122.195 148.7690
361.730934 122.157 148.6659
364.352185 122.118 148.5676
366.992431 122.080 148.4739
369.651810 122.041 148.3843
372.330459 122.003 148.2985
375.028519 121.965 148.2162
377.746130 121.926 148.1370
380.483434 121.888 148.0610
383.240574 121.849 147.9878
386.017693 121.811 147.9175
388.814937 121.773 147.8500
391.632450 121.734 147.7851
394.470380 121.696 147.7228
397.328875 121.657 147.6630
400.208084 121.619 147.6056
403.108157 121.580 147.5508
406.029245 121.542 147.4984
408.971500 121.503 147.4485
411.935076 121.465 147.4009
414.920127 121.426 147.3558
417.926810 121.387 147.3132
420.955280 121.349 147.2731
424.005695 121.310 147.2355
427.078215 121.271 147.2003
430.173000 121.232 147.1677
433.290211 121.194 147.1375
436.430010 121.155 147.1101
439.592562 121.116 147.0855
442.778031 121.078 147.0640
445.986583 121.039 147.0455
449.218386 121.001 147.0299
452.473607 120.963 147.0171
455.752418 120.924 147.0067
459.054987 120.886 146.9984
462.381489 120.849 146.9921
465.732096 120.811 146.9874
469.106983 120.774 146.9839
472.506325 120.737 146.9811
475.930301 120.700 146.9788
479.379088 120.663 146.9767
482.852867 120.626 146.9745
486.351817 120.589 146.9725
489.876123 120.552 146.9709
493.425968 120.515 146.9699
497.001536 120.478 146.9701
500.603014 120.440 146.9719
504.230589 120.402 146.9758
507.884452 120.364 146.9821
511.564792 120.325 146.9913
515.271802 120.287 147.0034
519.005673 120.248 147.0186
522.766602 120.209 147.0368
526.554785 120.170 147.0581
530.370418 120.131 147.0825
534.213700 120.092 147.1100
538.084833 120.054 147.1409
541.984018 120.015 147.1751
545.911457 119.976 147.2127
549.867357 119.937 147.2537
553.851922 119.898 147.2980
557.865362 119.860 147.3456
561.907884 119.821 147.3964
565.979700 119.782 147.4504
570.081022 119.744 147.5076
574.212064 119.705 147.5678
578.373042 119.667 147.6312
582.564171 119.629 147.6978
586.785671 119.591 147.7676
591.037762 119.553 147.8409
595.320665 119.515 147.9177
599.634604 119.477 147.9981
603.979804 119.439 148.0821
608.356491 119.402 148.1696
612.764893 119.364 148.2606
617.205240 119.327 148.3550
621.677763 119.290 148.4531
626.182696 119.254 148.5547
630.720274 119.217 148.6599
635.290733 119.181 148.7689
639.894312 119.145 148.8817
644.531250 119.109 148.9983
649.201789 119.073 149.1188
653.906173 119.038 149.2433
658.644647 119.003 149.3720
663.417457 118.969 149.5050
668.224854 118.934 149.6422
673.067086 118.900 149.7835
677.944408 118.867 149.9290
682.857073 118.834 150.0786
687.805336 118.801 150.2327
692.789457 118.768 150.3910
697.809695 118.736 150.5534
702.866312 118.705 150.7200
707.959571 118.674 150.8908
713.089738 118.644 151.0660
718.257080 118.614 151.2459
723.461867 118.585 151.4303
728.704370 118.556 151.6190
733.984862 118.528 151.8121
739.303619 118.501 152.0096
744.660918 118.474 152.2115
750.057038 118.448 152.4181
755.492260 118.423 152.6291
760.966869 118.398 152.8442
766.481148 118.375 153.0638
772.035387 118.352 153.2878
777.629873 118.330 153.5163
783.264900 118.309 153.7491
788.940760 118.289 153.9861
794.657750 118.270 154.2269
800.416168 118.253 154.4716
806.216313 118.236 154.7201
812.058489 118.220 154.9724
817.943000 118.206 155.2280
823.870152 118.193 155.4869
829.840255 118.181 155.7490
835.853619 118.171 156.0139
841.910559 118.161 156.2817
848.011390 118.154 156.5518
854.156430 118.147 156.8240
860.346000 118.143 157.0978
866.580422 118.140 157.3731
872.860020 118.138 157.6496
879.185124 118.138 157.9271
885.556062 118.140 158.2051
891.973166 118.143 158.4830
898.436771 118.148 158.7601
904.947215 118.155 159.0361
911.504835 118.164 159.3104
918.109975 118.175 159.5828
924.762978 118.187 159.8528
931.464192 118.201 160.1196
938.213966 118.217 160.3829
945.012651 118.235 160.6418
951.860602 118.254 160.8960
958.758176 118.276 161.1446
965.705733 118.299 161.3870
972.703635 118.324 161.6227
979.752246 118.351 161.8510
986.851935 118.379 162.0713
994.003071 118.409 162.2831
1001.206027 118.441 162.4856
1008.461179 118.474 162.6785
1015.768904 118.509 162.8611
1023.129584 118.545 163.0329
1030.543603 118.582 163.1934
1038.011347 118.621 163.3422
1045.533205 118.661 163.4789
1053.109569 118.702 163.6033
1060.740836 118.744 163.7150
1068.427401 118.786 163.8138
1076.169666 118.830 163.8994
1083.968035 118.874 163.9717
1091.822915 118.919 164.0305
1099.734713 118.964 164.0757
1107.703844 119.010 164.1075
1115.730723 119.056 164.1256
1123.815768 119.103 164.1303
1131.959400 119.149 164.1216
1140.162045 119.195 164.0997
1148.424129 119.242 164.0649
1156.746083 119.288 164.0175
1165.128342 119.334 163.9577
1173.571343 119.380 163.8857
1182.075524 119.425 163.8015
1190.641331 119.470 163.7054
1199.269209 119.515 163.5977
1207.959608 119.559 163.4788
1216.712981 119.602 163.3491
1225.529785 119.645 163.2087
1234.410479 119.687 163.0580
1243.355526 119.729 162.8972
1252.365393 119.770 162.7266
1261.440549 119.810 162.5463
1270.581467 119.850 162.3565
1279.788624 119.888 162.1577
1289.062500 119.926 161.9498
1298.403578 119.963 161.7329
1307.812346 120.000 161.5073
1317.289293 120.035 161.2732
1326.834914 120.070 161.0306
1336.449707 120.103 160.7796
1346.134173 120.136 160.5202
1355.888816 120.168 160.2524
1365.714145 120.198 159.9763
1375.610673 120.228 159.6921
1385.578915 120.257 159.4001
1395.619391 120.285 159.1004
1405.732624 120.311 158.7928
1415.919142 120.336 158.4773
1426.179476 120.360 158.1542
1436.514160 120.382 157.8239
1446.923734 120.403 157.4865
1457.408740 120.423 157.1422
1467.969724 120.440 156.7909
1478.607238 120.457 156.4331
1489.321836 120.471 156.0693
1500.114076 120.484 155.7001
1510.984521 120.494 155.3261
1521.933737 120.503 154.9478
1532.962297 120.510 154.5656
1544.070773 120.514 154.1799
1555.259747 120.517 153.7915
1566.529800 120.517 153.4014
1577.881521 120.515 153.0104
1589.315501 120.511 152.6193
1600.832336 120.504 152.2290
1612.432627 120.495 151.8405
1624.116978 120.483 151.4548
1635.886000 120.469 151.0727
1647.740304 120.452 150.6953
1659.680509 120.433 150.3233
1671.707238 120.411 149.9576
1683.821118 120.387 149.5992
1696.022780 120.361 149.2495
1708.312860 120.332 148.9095
1720.692000 120.300 148.5809
1733.160843 120.266 148.2648
1745.720041 120.230 147.9629
1758.370248 120.191 147.6766
1771.112124 120.150 147.4078
1783.946332 120.107 147.1581
1796.873543 120.062 146.9292
1809.894429 120.015 146.7224
1823.009670 119.967 146.5392
1836.219950 119.917 146.3810
1849.525956 119.866 146.2492
1862.928384 119.814 146.1452
1876.427931 119.762 146.0701
1890.025301 119.709 146.0251
1903.721204 119.657 146.0111
1917.516352 119.605 146.0288
1931.411466 119.553 146.0787
1945.407270 119.503 146.1611
1959.504493 119.455 146.2764
1973.703870 119.408 146.4247
1988.006142 119.364 146.6060
2002.412054 119.323 146.8202
2016.922357 119.285 147.0672
2031.537808 119.250 147.3473
2046.259169 119.220 147.6603
2061.087206 119.194 148.0057
2076.022694 119.174 148.3821
2091.066410 119.161 148.7870
2106.219139 119.154 149.2170
2121.481671 119.155 149.6676
2136.854802 119.164 150.1336
2152.339333 119.182 150.6088
2167.936071 119.208 151.0869
2183.645829 119.243 151.5619
2199.469427 119.287 152.0282
2215.407689 119.339 152.4816
2231.461446 119.399 152.9183
2247.631536 119.466 153.3354
2263.918800 119.542 153.7299
2280.324089 119.625 154.0977
2296.848258 119.715 154.4344
2313.492167 119.814 154.7346
2330.256685 119.919 154.9916
2347.142685 120.031 155.1986
2364.151049 120.150 155.3484
2381.282662 120.273 155.4348
2398.538418 120.400 155.4521
2415.919216 120.529 155.3965
2433.425962 120.659 155.2658
2451.059570 120.787 155.0602
2468.820958 120.913 154.7823
2486.711052 121.035 154.4373
2504.730786 121.150 154.0321
2522.881098 121.259 153.5756
2541.162934 121.360 153.0778
2559.577248 121.453 152.5499
2578.125000 121.537 152.0036
2596.807157 121.613 151.4498
2615.624692 121.682 150.8985
2634.578586 121.745 150.3582
2653.669829 121.802 149.8360
2672.899414 121.854 149.3372
2692.268345 121.904 148.8652
2711.777632 121.953 148.4215
2731.428290 122.001 148.0060
2751.221345 122.051 147.6171
2771.157829 122.103 147.2516
2791.238781 122.158 146.9054
2811.465248 122.218 146.5732
2831.838284 122.283 146.2492
2852.358952 122.354 145.9268
2873.028321 122.431 145.5991
2893.847468 122.514 145.2589
2914.817480 122.605 144.8993
2935.939449 122.702 144.5136
2957.214476 122.806 144.0955
2978.643672 122.916 143.6388
3000.228152 123.033 143.1376
3021.969041 123.155 142.5865
3043.867475 123.284 141.9805
3065.924593 123.418 141.3151
3088.141547 123.558 140.5851
3110.519493 123.703 139.7856
3133.059600 123.854 138.9108
3155.763041 124.011 137.9536
3178.631001 124.173 136.9058
3201.664672 124.341 135.7567
3224.865254 124.514 134.4933
3248.233957 124.693 133.0999
3271.771999 124.876 131.5580
3295.480608 125.063 129.8466
3319.361019 125.250 127.9431
3343.414477 125.434 125.8242
3367.642236 125.610 123.4683
3392.045560 125.772 120.8580
3416.625721 125.912 117.9832
3441.383999 126.021 114.8455
3466.321686 126.088 111.4614
3491.440082 126.104 107.8652
3516.740496 126.060 104.1099
3542.224247 125.948 100.2651
3567.892664 125.763 96.4134
3593.747085 125.505 92.6430
3619.788858 125.176 89.0406
3646.019340 124.781 85.6833
3672.439900 124.331 82.6329
3699.051913 123.834 79.9323
3725.856768 123.302 77.6047
3752.855862 122.747 75.6553
3780.050603 122.178 74.0737
3807.442408 121.605 72.8379
3835.032705 121.034 71.9187
3862.822933 120.471 71.2831
3890.814540 119.920 70.8972
3919.008986 119.383 70.7289
3947.407741 118.862 70.7488
3976.012284 118.356 70.9315
4004.824108 117.866 71.2555
4033.844715 117.391 71.7028
4063.075616 116.930 72.2589
4092.518337 116.482 72.9122
4122.174412 116.045 73.6537
4152.045387 115.619 74.4765
4182.132820 115.203 75.3756
4212.438278 114.795 76.3470
4242.963342 114.394 77.3885
4273.709604 114.001 78.4987
4304.678665 113.613 79.6774
4335.872141 113.230 80.9256
4367.291658 112.852 82.2449
4398.938854 112.477 83.6381
4430.815378 112.106 85.1093
4462.922893 111.737 86.6636
4495.263072 111.370 88.3073
4527.837601 111.006 90.0479
4560.648179 110.644 91.8941
4593.696515 110.284 93.8564
4626.984334 109.927 95.9465
4660.513370 109.575 98.1769
4694.285371 109.227 100.5606
4728.302098 108.887 103.1100
4762.565324 108.556 105.8358
4797.076835 108.238 108.7461
4831.838432 107.935 111.8447
4866.851925 107.651 115.1307
4902.119140 107.389 118.5991
4937.641916 107.153 122.2410
4973.422105 106.947 126.0446
5009.461572 106.771 129.9964
5045.762195 106.630 134.0815
5082.325868 106.525 138.2836
5119.154496 106.458 142.5861
5156.250000 106.431 146.9716
5193.614313 106.444 151.4232
5231.249383 106.501 155.9267
5269.157173 106.601 160.4714
5307.339658 106.748 165.0518
5345.798829 106.944 169.6667
5384.536691 107.193 174.3169
5423.555263 107.504 178.9971
5462.856580 107.885 -176.3138
5502.442691 108.343 -171.6656
5542.315659 108.886 -167.1466
5582.477563 109.516 -162.8855
5622.930497 110.228 -159.0412
5663.676569 111.009 -155.7799
5704.717904 111.839 -153.2504
5746.056642 112.693 -151.5614
5787.694937 113.542 -150.7701
5829.634960 114.357 -150.8791
5871.878898 115.110 -151.8389
5914.428953 115.774 -153.5512
5957.287343 116.325 -155.8678
6000.456303 116.749 -158.5871
6043.938083 117.041 -161.4623
6087.734950 117.212 -164.2426
6131.849187 117.289 -166.7428
6176.283094 117.302 -168.8798
6221.038987 117.274 -170.6511
6266.119200 117.220 -172.0898
6311.526083 117.148 -173.2299
6357.262002 117.062 -174.0933
6403.329344 116.965 -174.6914
6449.730508 116.860 -175.0301
6496.467914 116.754 -175.1150
6543.543998 116.648 -174.9536
6590.961215 116.549 -174.5564
6638.722037 116.461 -173.9381
6686.828954 116.388 -173.1193
6735.284473 116.334 -172.1283
6784.091120 116.301 -171.0003
6833.251441 116.290 -169.7709
6882.767998 116.298 -168.4666
6932.643372 116.326 -167.1009
6982.880164 116.373 -165.6792
7033.480992 116.438 -164.2056
7084.448495 116.523 -162.6871
7135.785329 116.630 -161.1346
7187.494171 116.758 -159.5610
7239.577717 116.909 -157.9797
7292.038681 117.082 -156.4028
7344.879799 117.279 -154.8405
7398.103826 117.498 -153.3019
7451.713536 117.742 -151.7962
7505.711724 118.011 -150.3343
7560.101205 118.306 -148.9296
7614.884815 118.629 -147.5989
7670.065409 118.981 -146.3638
7725.645865 119.364 -145.2508
7781.629080 119.779 -144.2930
7838.017972 120.227 -143.5298
7894.815481 120.705 -143.0072
7952.024569 121.213 -142.7766
8009.648217 121.746 -142.8931
8067.689429 122.296 -143.4131
8126.151233 122.854 -144.3891
8185.036674 123.409 -145.8656
8244.348824 123.947 -147.8723
8304.090774 124.449 -150.4183
8364.265639 124.899 -153.4870
8424.876556 125.280 -157.0316
8485.926684 125.575 -160.9739
8547.419207 125.772 -165.2061
8609.357330 125.862 -169.5968
8671.744282 125.841 -174.0000
8734.583316 125.712 -178.2684
8797.877707 125.483 177.7349
8861.630756 125.165 174.1253
8925.845785 124.775 170.9908
8990.526143 124.329 168.3896
9055.675202 123.845 166.3505
9121.296357 123.341 164.8738
9187.393031 122.833 163.9324
9253.968668 122.336 163.4737
9321.026740 121.858 163.4306
9388.570742 121.404 163.7385
9456.604196 120.977 164.3491
9525.130648 120.575 165.2345
9594.153671 120.198 166.3848
9663.676863 119.848 167.8040
9733.703850 119.528 169.5024
9804.238280 119.244 171.4868
9875.283832 119.006 173.7466
9946.844210 118.824 176.2423
10018.923143 118.708 178.9025
10091.524390 118.663 -178.3667
10164.651736 118.693 -175.6630
10238.308993 118.795 -173.0726
10312.500000 118.968 -170.6642
10387.228626 119.209 -168.4951
10462.498767 119.518 -166.6220
10538.314345 119.894 -165.1127
10614.679315 120.335 -164.0535
10691.597657 120.835 -163.5495
10769.073381 121.383 -163.7188
10847.110526 121.962 -164.6797
10925.713161 122.545 -166.5340
11004.885382 123.099 -169.3465
11084.631318 123.585 -173.1261
11164.955126 123.961 -177.8082
11245.860993 124.189 176.7581
11327.353138 124.236 170.8105
11409.435808 124.081 164.6588
11492.113283 123.720 158.6441
11575.389873 123.166 153.0858
11659.269920 122.447 148.2274
11743.757796 121.599 144.2083
11828.857906 120.659 141.0719
11914.574686 119.657 138.8114
12000.912606 118.617 137.4153
12087.876166 117.560 136.8719
12175.469900 116.507 137.1431
12263.698373 115.478 138.1461
12352.566187 114.489 139.7616
12442.077974 113.549 141.8638
12532.238400 112.660 144.3497
12623.052165 111.819 147.1591
12714.524005 111.021 150.2819
12806.658687 110.261 153.7514
12899.461015 109.540 157.6192
12992.935827 108.865 161.9154
13087.087996 108.249 166.6151
13181.922430 107.704 171.6290
13277.444074 107.239 176.8241
13373.657907 106.856 -177.9404
13470.568945 106.552 -172.7822
13568.182241 106.318 -167.7807
13666.502883 106.146 -162.9751
13765.535996 106.025 -158.3705
13865.286744 105.948 -153.9473
13965.760328 105.911 -149.6717
14066.961984 105.915 -145.5121
14168.896989 105.963 -141.4606
14271.570658 106.061 -137.5553
14374.988342 106.210 -133.8840
14479.155433 106.407 -130.5505
14584.077362 106.640 -127.6101
14689.759598 106.902 -125.0363
14796.207652 107.194 -122.7739
14903.427072 107.525 -120.8279
15011.423448 107.900 -119.2955
15120.202410 108.313 -118.3270
15229.769630 108.750 -118.0639
15340.130819 109.186 -118.6001
15451.291730 109.596 -119.9709
15563.258160 109.951 -122.1553
15676.035944 110.227 -125.0818
15789.630962 110.401 -128.6352
15904.049137 110.456 -132.6699
16019.296433 110.384 -137.0283
16135.378859 110.184 -141.5607
16252.302465 109.858 -146.1431
16370.073348 109.413 -150.6821
16488.697648 108.852 -155.1030
16608.181548 108.177 -159.3276
16728.531278 107.390 -163.2688
16849.753112 106.492 -166.8306
16971.853368 105.484 -169.8983
17094.838414 104.371 -172.3414
17218.714660 103.162 -174.0317
17343.488565 101.871 -174.8640
17469.166632 100.516 -174.7705
17595.755415 99.119 -173.7297
17723.261512 97.703 -171.7695
17851.691571 96.290 -168.9664
17981.052287 94.901 -165.4413
18111.350404 93.555 -161.3521
18242.592715 92.268 -156.8844
18374.786062 91.050 -152.2421
18507.937336 89.907 -147.6379
18642.053479 88.837 -143.2837
18777.141484 87.836 -139.3800
18913.208391 86.893 -136.1121
19050.261296 85.994 -133.6566
19188.307342 85.127 -132.1908
19327.353727 84.273 -131.8800
19467.407699 83.407 -132.8123
19608.476560 82.509 -134.8725
19750.567664 81.593 -137.6092
19893.688419 80.766 -140.2323
20037.846286 80.249 -141.8500
