* Measurement data measured by REW V5.20.9
* Source: Input device not selected, no input selected, L, volume: no control. Timing signal peak level -43,9 dBFS, measurement signal peak level -10,5 dBFS
* Format: 256k Log Swept Sine, 1 sweep at -12,0 dBFS using an acoustic timing reference
* Dated: 12.07.2023 19:57:33
* REW Settings:
*  C-weighting compensation: Off
*  Target level: 75.0 dB
* Note: Delay -0,1068 ms (-37 mm, -1,44 in) using estimated IR delay relative to Acoustic reference on  R with no timing offset
* Measurement: BlueLover_clarion
* Smoothing: 1/12 octave
* Frequency Step: 96 ppo
* Start Frequency: 20.187378 Hz
*
* Freq(Hz) SPL(dB) Phase(degrees)
20.187378 118.537 53.3518
20.333664 118.552 53.1489
20.481010 118.573 52.8465
20.629424 118.599 52.4717
20.778913 118.628 52.0476
20.929486 118.658 51.5910
21.081150 118.688 51.1126
21.233912 118.717 50.6192
21.387782 118.746 50.1150
21.542767 118.774 49.6030
21.698874 118.802 49.0853
21.856113 118.828 48.5636
22.014492 118.854 48.0396
22.174018 118.880 47.5147
22.334700 118.905 46.9900
22.496546 118.931 46.4667
22.659566 118.956 45.9456
22.823766 118.982 45.4274
22.989157 119.008 44.9125
23.155745 119.034 44.4015
23.323542 119.060 43.8948
23.492554 119.086 43.3927
23.662790 119.112 42.8956
23.834261 119.138 42.4037
24.006973 119.163 41.9170
24.180938 119.188 41.4353
24.356163 119.212 40.9581
24.532658 119.236 40.4844
24.710431 119.259 40.0129
24.889493 119.282 39.5419
25.069853 119.303 39.0695
25.251519 119.324 38.5941
25.434502 119.344 38.1140
25.618811 119.362 37.6280
25.804456 119.379 37.1356
25.991445 119.394 36.6369
26.179790 119.408 36.1328
26.369500 119.421 35.6247
26.560584 119.433 35.1142
26.753053 119.443 34.6030
26.946917 119.454 34.0928
27.142185 119.464 33.5843
27.338869 119.475 33.0782
27.536977 119.486 32.5741
27.736522 119.497 32.0716
27.937512 119.509 31.5700
28.139959 119.522 31.0688
28.343872 119.534 30.5680
28.549264 119.545 30.0682
28.756143 119.555 29.5705
28.964522 119.564 29.0764
29.174411 119.571 28.5872
29.385821 119.578 28.1038
29.598763 119.584 27.6261
29.813248 119.590 27.1532
30.029287 119.596 26.6833
30.246891 119.602 26.2143
30.466073 119.610 25.7440
30.686842 119.618 25.2714
30.909212 119.626 24.7963
31.133193 119.634 24.3202
31.358797 119.643 23.8455
31.586035 119.651 23.3752
31.814921 119.659 22.9118
32.045465 119.666 22.4568
32.277680 119.673 22.0100
32.511577 119.680 21.5695
32.747169 119.687 21.1320
32.984469 119.693 20.6936
33.223488 119.697 20.2509
33.464239 119.700 19.8010
33.706735 119.701 19.3431
33.950987 119.700 18.8777
34.197010 119.695 18.4062
34.444816 119.688 17.9312
34.694417 119.680 17.4547
34.945827 119.670 16.9784
35.199059 119.659 16.5032
35.454126 119.649 16.0291
35.711041 119.639 15.5559
35.969818 119.631 15.0832
36.230470 119.625 14.6115
36.493011 119.620 14.1419
36.757455 119.615 13.6768
37.023814 119.611 13.2194
37.292104 119.606 12.7731
37.562338 119.600 12.3406
37.834530 119.592 11.9224
38.108695 119.582 11.5166
38.384846 119.569 11.1183
38.662999 119.553 10.7203
38.943167 119.535 10.3156
39.225365 119.515 9.8982
39.509608 119.494 9.4657
39.795911 119.474 9.0192
40.084289 119.455 8.5632
40.374756 119.440 8.1036
40.667328 119.429 7.6473
40.962020 119.423 7.2016
41.258848 119.419 6.7743
41.557827 119.416 6.3752
41.858972 119.411 6.0148
42.162299 119.402 5.7015
42.467824 119.389 5.4371
42.775564 119.374 5.2114
43.085533 119.360 5.0006
43.397749 119.350 4.7708
43.712227 119.344 4.4871
44.028983 119.341 4.1265
44.348036 119.338 3.6870
44.669400 119.331 3.1896
44.993093 119.317 2.6712
45.319131 119.296 2.1709
45.647532 119.268 1.7165
45.978313 119.234 1.3147
46.311491 119.197 0.9506
46.647083 119.159 0.5944
46.985107 119.120 0.2134
47.325581 119.081 -0.2165
47.668521 119.043 -0.7037
48.013947 119.008 -1.2382
48.361876 118.977 -1.7953
48.712326 118.951 -2.3420
49.065315 118.931 -2.8467
49.420863 118.916 -3.2880
49.778987 118.905 -3.6609
50.139706 118.894 -3.9776
50.503039 118.883 -4.2622
50.869005 118.867 -4.5407
51.237623 118.848 -4.8327
51.608912 118.825 -5.1462
51.982891 118.800 -5.4796
52.359580 118.778 -5.8262
52.739000 118.758 -6.1783
53.121168 118.742 -6.5290
53.506106 118.727 -6.8707
53.893833 118.711 -7.1956
54.284370 118.691 -7.4985
54.677737 118.667 -7.7804
55.073955 118.639 -8.0499
55.473043 118.608 -8.3194
55.875024 118.575 -8.5985
56.279917 118.539 -8.8892
56.687745 118.502 -9.1868
57.098527 118.464 -9.4859
57.512287 118.426 -9.7865
57.929045 118.391 -10.0949
58.348822 118.357 -10.4200
58.771642 118.325 -10.7670
59.197525 118.290 -11.1351
59.626495 118.253 -11.5181
60.058573 118.210 -11.9062
60.493782 118.159 -12.2865
60.932145 118.101 -12.6443
61.373685 118.039 -12.9676
61.818424 117.977 -13.2557
62.266386 117.923 -13.5240
62.717593 117.879 -13.7984
63.172071 117.844 -14.0987
63.629842 117.814 -14.4233
64.090930 117.785 -14.7501
64.555359 117.754 -15.0530
65.023154 117.722 -15.3226
65.494339 117.691 -15.5719
65.968938 117.658 -15.8253
66.446976 117.624 -16.1007
66.928478 117.585 -16.4011
67.413469 117.542 -16.7168
67.901975 117.496 -17.0334
68.394021 117.447 -17.3363
68.889632 117.399 -17.6131
69.388835 117.352 -17.8572
69.891655 117.307 -18.0699
70.398118 117.263 -18.2591
70.908252 117.218 -18.4344
71.422083 117.171 -18.6039
71.939636 117.121 -18.7745
72.460941 117.069 -18.9530
72.986023 117.017 -19.1444
73.514909 116.965 -19.3482
74.047629 116.913 -19.5585
74.584208 116.862 -19.7681
75.124676 116.809 -19.9730
75.669061 116.756 -20.1746
76.217390 116.701 -20.3776
76.769692 116.646 -20.5872
77.325997 116.592 -20.8063
77.886333 116.541 -21.0337
78.450730 116.491 -21.2642
79.019216 116.444 -21.4905
79.591822 116.396 -21.7057
80.168577 116.348 -21.9057
80.749512 116.297 -22.0886
81.334656 116.244 -22.2533
81.924040 116.187 -22.4010
82.517696 116.129 -22.5374
83.115653 116.069 -22.6713
83.717943 116.009 -22.8092
84.324598 115.948 -22.9502
84.935649 115.886 -23.0880
85.551128 115.826 -23.2166
86.171066 115.766 -23.3330
86.795497 115.709 -23.4378
87.424453 115.653 -23.5318
88.057967 115.598 -23.6155
88.696071 115.542 -23.6890
89.338800 115.486 -23.7529
89.986185 115.427 -23.8098
90.638262 115.367 -23.8635
91.295065 115.305 -23.9171
91.956626 115.243 -23.9707
92.622982 115.181 -24.0209
93.294166 115.120 -24.0639
93.970214 115.057 -24.0980
94.651161 114.994 -24.1255
95.337042 114.931 -24.1520
96.027894 114.867 -24.1831
96.723752 114.803 -24.2198
97.424652 114.742 -24.2569
98.130631 114.682 -24.2863
98.841726 114.623 -24.3019
99.557974 114.564 -24.3003
100.279412 114.505 -24.2804
101.006078 114.445 -24.2442
101.738010 114.387 -24.1956
102.475245 114.329 -24.1370
103.217823 114.274 -24.0692
103.965782 114.219 -23.9935
104.719161 114.165 -23.9117
105.477999 114.111 -23.8248
106.242336 114.057 -23.7319
107.012212 114.002 -23.6307
107.787666 113.945 -23.5203
108.568740 113.887 -23.4031
109.355474 113.827 -23.2844
110.147909 113.766 -23.1667
110.946086 113.704 -23.0464
111.750047 113.643 -22.9190
112.559834 113.582 -22.7854
113.375489 113.522 -22.6519
114.197055 113.464 -22.5232
115.024574 113.408 -22.3968
115.858089 113.352 -22.2667
116.697645 113.298 -22.1303
117.543284 113.243 -21.9903
118.395051 113.189 -21.8489
119.252990 113.136 -21.7028
120.117147 113.083 -21.5432
120.987565 113.031 -21.3624
121.864291 112.981 -21.1583
122.747370 112.932 -20.9359
123.636848 112.884 -20.7023
124.532771 112.837 -20.4639
125.435187 112.791 -20.2248
126.344142 112.746 -19.9873
127.259684 112.703 -19.7530
128.181860 112.661 -19.5224
129.110718 112.620 -19.2957
130.046308 112.578 -19.0731
130.988677 112.536 -18.8517
131.937875 112.492 -18.6244
132.893951 112.447 -18.3843
133.856956 112.403 -18.1310
134.826938 112.361 -17.8704
135.803950 112.321 -17.6065
136.788041 112.283 -17.3368
137.779264 112.246 -17.0547
138.777669 112.208 -16.7575
139.783309 112.172 -16.4473
140.796237 112.137 -16.1286
141.816504 112.105 -15.8066
142.844165 112.074 -15.4857
143.879273 112.044 -15.1678
144.921881 112.017 -14.8528
145.972045 111.991 -14.5399
147.029819 111.967 -14.2292
148.095257 111.944 -13.9206
149.168417 111.922 -13.6131
150.249353 111.901 -13.3051
151.338121 111.881 -12.9956
152.434780 111.862 -12.6843
153.539385 111.843 -12.3719
154.651995 111.826 -12.0589
155.772667 111.809 -11.7447
156.901460 111.794 -11.4282
158.038432 111.779 -11.1091
159.183644 111.765 -10.7887
160.337154 111.752 -10.4681
161.499023 111.740 -10.1481
162.669312 111.728 -9.8300
163.848081 111.718 -9.5153
165.035392 111.708 -9.2048
166.231306 111.699 -8.8977
167.435887 111.690 -8.5932
168.649196 111.684 -8.2912
169.871298 111.678 -7.9916
171.102255 111.673 -7.6948
172.342133 111.670 -7.4009
173.590995 111.667 -7.1100
174.848907 111.665 -6.8220
176.115934 111.664 -6.5366
177.392143 111.664 -6.2531
178.677599 111.665 -5.9708
179.972371 111.667 -5.6894
181.276525 111.670 -5.4095
182.590129 111.673 -5.1317
183.913252 111.677 -4.8573
185.245964 111.682 -4.5882
186.588332 111.687 -4.3269
187.940428 111.692 -4.0749
189.302322 111.697 -3.8309
190.674085 111.703 -3.5918
192.055788 111.709 -3.3548
193.447503 111.716 -3.1182
194.849303 111.724 -2.8814
196.261262 111.732 -2.6445
197.683452 111.741 -2.4078
199.115948 111.750 -2.1718
200.558824 111.759 -1.9374
202.012156 111.769 -1.7057
203.476019 111.780 -1.4778
204.950490 111.792 -1.2539
206.435646 111.804 -1.0343
207.931564 111.817 -0.8193
209.438322 111.830 -0.6088
210.955998 111.844 -0.4026
212.484672 111.859 -0.2006
214.024424 111.874 -0.0029
215.575333 111.890 0.1901
217.137481 111.906 0.3776
218.710948 111.924 0.5586
220.295818 111.941 0.7325
221.892172 111.960 0.8984
223.500094 111.979 1.0557
225.119668 111.998 1.2043
226.750978 112.017 1.3442
228.394109 112.036 1.4756
230.049147 112.055 1.5988
231.716178 112.072 1.7134
233.395289 112.089 1.8190
235.086567 112.105 1.9159
236.790102 112.121 2.0058
238.505980 112.135 2.0903
240.234293 112.150 2.1706
241.975130 112.164 2.2480
243.728581 112.177 2.3233
245.494739 112.190 2.3969
247.273695 112.202 2.4694
249.065542 112.213 2.5413
250.870374 112.224 2.6130
252.688284 112.234 2.6845
254.519367 112.243 2.7557
256.363720 112.251 2.8263
258.221437 112.260 2.8962
260.092616 112.267 2.9656
261.977354 112.275 3.0342
263.875750 112.282 3.1022
265.787903 112.288 3.1698
267.713911 112.294 3.2376
269.653877 112.301 3.3065
271.607900 112.306 3.3771
273.576083 112.312 3.4494
275.558528 112.317 3.5232
277.555338 112.322 3.5984
279.566619 112.327 3.6746
281.592474 112.332 3.7513
283.633009 112.337 3.8286
285.688331 112.342 3.9067
287.758546 112.348 3.9861
289.843763 112.353 4.0668
291.944090 112.358 4.1489
294.059638 112.364 4.2323
296.190515 112.369 4.3175
298.336833 112.375 4.4045
300.498705 112.382 4.4934
302.676243 112.389 4.5842
304.869559 112.397 4.6765
307.078770 112.406 4.7695
309.303989 112.416 4.8612
311.545334 112.429 4.9484
313.802919 112.443 5.0272
316.076865 112.458 5.0938
318.367288 112.474 5.1451
320.674309 112.491 5.1787
322.998047 112.508 5.1933
325.338624 112.523 5.1886
327.696162 112.538 5.1653
330.070783 112.550 5.1258
332.462612 112.559 5.0742
334.871773 112.566 5.0151
337.298392 112.569 4.9528
339.742595 112.570 4.8908
342.204510 112.568 4.8322
344.684265 112.564 4.7796
347.181989 112.558 4.7349
349.697813 112.551 4.6990
352.231868 112.542 4.6721
354.784285 112.533 4.6537
357.355198 112.523 4.6428
359.944741 112.513 4.6383
362.553049 112.502 4.6390
365.180258 112.491 4.6437
367.826505 112.479 4.6518
370.491927 112.467 4.6632
373.176665 112.455 4.6783
375.880856 112.443 4.6968
378.604644 112.430 4.7189
381.348169 112.418 4.7445
384.111575 112.405 4.7738
386.895006 112.391 4.8064
389.698607 112.378 4.8419
392.522524 112.364 4.8799
395.366904 112.350 4.9202
398.231895 112.336 4.9626
401.117648 112.321 5.0072
404.024312 112.306 5.0539
406.952038 112.291 5.1027
409.900981 112.276 5.1539
412.871292 112.260 5.2076
415.863128 112.244 5.2642
418.876643 112.227 5.3236
421.911996 112.210 5.3859
424.969344 112.193 5.4508
428.048847 112.176 5.5183
431.150666 112.158 5.5880
434.274961 112.141 5.6599
437.421897 112.123 5.7337
440.591636 112.104 5.8096
443.784345 112.086 5.8881
447.000189 112.067 5.9695
450.239337 112.048 6.0541
453.501956 112.028 6.1423
456.788219 112.009 6.2339
460.098294 111.989 6.3287
463.432356 111.968 6.4261
466.790578 111.948 6.5258
470.173135 111.927 6.6279
473.580203 111.906 6.7327
477.011961 111.885 6.8405
480.468586 111.863 6.9512
483.950259 111.841 7.0651
487.457163 111.819 7.1825
490.989478 111.796 7.3035
494.547390 111.774 7.4282
498.131084 111.751 7.5563
501.740748 111.728 7.6879
505.376568 111.704 7.8229
509.038735 111.681 7.9613
512.727439 111.657 8.1030
516.442874 111.633 8.2477
520.185232 111.609 8.3957
523.954708 111.585 8.5472
527.751500 111.560 8.7026
531.575805 111.535 8.8620
535.427822 111.510 9.0257
539.307753 111.485 9.1938
543.215800 111.460 9.3663
547.152165 111.434 9.5429
551.117055 111.409 9.7232
555.110677 111.383 9.9070
559.133237 111.356 10.0948
563.184947 111.330 10.2866
567.266018 111.304 10.4825
571.376661 111.277 10.6826
575.517092 111.250 10.8870
579.687526 111.224 11.0959
583.888181 111.197 11.3094
588.119275 111.170 11.5275
592.381030 111.143 11.7504
596.673667 111.116 11.9784
600.997410 111.088 12.2119
605.352485 111.061 12.4509
609.739119 111.033 12.6955
614.157540 111.006 12.9456
618.607979 110.978 13.2012
623.090667 110.950 13.4617
627.605839 110.923 13.7271
632.153730 110.895 13.9973
636.734576 110.868 14.2724
641.348617 110.840 14.5527
645.996094 110.813 14.8383
650.677248 110.786 15.1297
655.392323 110.759 15.4270
660.141566 110.732 15.7305
664.925224 110.705 16.0400
669.743546 110.678 16.3554
674.596784 110.651 16.6768
679.485191 110.624 17.0045
684.409020 110.598 17.3385
689.368530 110.571 17.6786
694.363979 110.545 18.0249
699.395626 110.519 18.3772
704.463736 110.494 18.7356
709.568570 110.469 19.1002
714.710396 110.443 19.4709
719.889483 110.419 19.8477
725.106099 110.394 20.2304
730.360516 110.370 20.6191
735.653010 110.346 21.0139
740.983855 110.322 21.4154
746.353329 110.299 21.8241
751.761713 110.277 22.2404
757.209288 110.255 22.6638
762.696339 110.234 23.0940
768.223151 110.213 23.5304
773.790013 110.194 23.9727
779.397214 110.174 24.4211
785.045047 110.156 24.8757
790.733808 110.138 25.3367
796.463791 110.120 25.8041
802.235296 110.104 26.2775
808.048623 110.088 26.7564
813.904077 110.074 27.2409
819.801961 110.060 27.7310
825.742584 110.047 28.2270
831.726255 110.035 28.7288
837.753287 110.024 29.2364
843.823992 110.015 29.7497
849.938689 110.006 30.2682
856.097695 109.998 30.7918
862.301332 109.992 31.3200
868.549922 109.987 31.8525
874.843793 109.983 32.3891
881.183272 109.981 32.9296
887.568689 109.980 33.4738
894.000378 109.980 34.0212
900.478673 109.982 34.5715
907.003913 109.984 35.1241
913.576437 109.988 35.6787
920.196588 109.994 36.2346
926.864712 110.001 36.7915
933.581156 110.009 37.3491
940.346270 110.019 37.9067
947.160407 110.030 38.4639
954.023921 110.043 39.0199
960.937172 110.058 39.5743
967.900519 110.074 40.1271
974.914325 110.091 40.6779
981.978956 110.109 41.2263
989.094780 110.129 41.7712
996.262169 110.150 42.3117
1003.481495 110.172 42.8471
1010.753136 110.196 43.3771
1018.077470 110.220 43.9014
1025.454879 110.246 44.4195
1032.885748 110.272 44.9312
1040.370463 110.300 45.4364
1047.909417 110.327 45.9354
1055.503000 110.356 46.4282
1063.151610 110.385 46.9146
1070.855645 110.415 47.3939
1078.615506 110.445 47.8658
1086.431599 110.476 48.3297
1094.304330 110.506 48.7856
1102.234110 110.537 49.2337
1110.221353 110.567 49.6743
1118.266475 110.598 50.1076
1126.369895 110.628 50.5338
1134.532035 110.658 50.9532
1142.753322 110.688 51.3665
1151.034184 110.717 51.7744
1159.375052 110.745 52.1777
1167.776361 110.773 52.5766
1176.238550 110.800 52.9716
1184.762060 110.827 53.3629
1193.347334 110.852 53.7515
1201.994821 110.877 54.1380
1210.704971 110.901 54.5232
1219.478238 110.925 54.9078
1228.315080 110.947 55.2920
1237.215957 110.968 55.6763
1246.181334 110.988 56.0614
1255.211678 111.007 56.4479
1264.307459 111.025 56.8368
1273.469152 111.043 57.2288
1282.697235 111.059 57.6243
1291.992188 111.075 58.0238
1301.354495 111.090 58.4276
1310.784647 111.104 58.8360
1320.283132 111.117 59.2497
1329.850448 111.130 59.6693
1339.487093 111.143 60.0952
1349.193569 111.154 60.5276
1358.970381 111.166 60.9670
1368.818041 111.177 61.4135
1378.737061 111.188 61.8677
1388.727958 111.198 62.3295
1398.791253 111.208 62.7991
1408.927471 111.219 63.2762
1419.137140 111.229 63.7607
1429.420793 111.239 64.2527
1439.778965 111.249 64.7521
1450.212197 111.259 65.2595
1460.721033 111.270 65.7750
1471.306019 111.281 66.2988
1481.967709 111.291 66.8310
1492.706658 111.303 67.3714
1503.523426 111.315 67.9205
1514.418576 111.327 68.4781
1525.392678 111.339 69.0444
1536.446302 111.353 69.6191
1547.580025 111.367 70.2022
1558.794428 111.381 70.7935
1570.090095 111.397 71.3929
1581.467615 111.413 72.0005
1592.927581 111.430 72.6161
1604.470591 111.448 73.2398
1616.097246 111.468 73.8714
1627.808153 111.488 74.5110
1639.603922 111.510 75.1582
1651.485168 111.533 75.8127
1663.452510 111.557 76.4737
1675.506573 111.582 77.1407
1687.647984 111.609 77.8134
1699.877377 111.637 78.4916
1712.195390 111.667 79.1753
1724.602663 111.698 79.8643
1737.099845 111.731 80.5586
1749.687587 111.765 81.2578
1762.366544 111.801 81.9615
1775.137379 111.839 82.6692
1788.000756 111.878 83.3803
1800.957346 111.919 84.0945
1814.007826 111.962 84.8117
1827.152874 112.006 85.5316
1840.393177 112.052 86.2536
1853.729425 112.101 86.9772
1867.162312 112.151 87.7020
1880.692540 112.203 88.4279
1894.320813 112.257 89.1544
1908.047843 112.314 89.8810
1921.874344 112.372 90.6071
1935.801038 112.433 91.3321
1949.828650 112.496 92.0555
1963.957912 112.561 92.7766
1978.189561 112.629 93.4948
1992.524338 112.699 94.2091
2006.962991 112.771 94.9186
2021.506272 112.845 95.6227
2036.154940 112.922 96.3204
2050.909758 113.001 97.0111
2065.771495 113.082 97.6940
2080.740927 113.166 98.3686
2095.818833 113.252 99.0340
2111.006001 113.341 99.6895
2126.303220 113.433 100.3338
2141.711290 113.527 100.9659
2157.231013 113.623 101.5846
2172.863198 113.722 102.1888
2188.608660 113.823 102.7775
2204.468221 113.927 103.3496
2220.442706 114.032 103.9040
2236.532950 114.141 104.4392
2252.739789 114.251 104.9538
2269.064070 114.363 105.4465
2285.506644 114.477 105.9159
2302.068367 114.593 106.3603
2318.750104 114.711 106.7777
2335.552723 114.831 107.1662
2352.477101 114.951 107.5242
2369.524119 115.073 107.8502
2386.694668 115.195 108.1428
2403.989641 115.319 108.4006
2421.409941 115.442 108.6223
2438.956476 115.565 108.8066
2456.630160 115.688 108.9523
2474.431915 115.810 109.0583
2492.362668 115.931 109.1230
2510.423356 116.050 109.1450
2528.614918 116.167 109.1232
2546.938304 116.281 109.0568
2565.394469 116.392 108.9454
2583.984375 116.499 108.7887
2602.708991 116.601 108.5877
2621.569293 116.698 108.3445
2640.566265 116.789 108.0614
2659.700897 116.874 107.7412
2678.974186 116.951 107.3862
2698.387137 117.022 106.9981
2717.940763 117.085 106.5782
2737.636082 117.141 106.1264
2757.474121 117.189 105.6423
2777.455915 117.227 105.1257
2797.582506 117.255 104.5785
2817.854942 117.272 104.0052
2838.274281 117.276 103.4132
2858.841586 117.266 102.8124
2879.557931 117.242 102.2142
2900.424394 117.203 101.6308
2921.442065 117.151 101.0740
2942.612039 117.085 100.5545
2963.935418 117.007 100.0808
2985.413316 116.918 99.6605
3007.046852 116.818 99.2998
3028.837153 116.708 99.0040
3050.785356 116.590 98.7777
3072.892604 116.465 98.6248
3095.160050 116.334 98.5488
3117.588856 116.197 98.5528
3140.180190 116.057 98.6393
3162.935230 115.915 98.8094
3185.855163 115.772 99.0629
3208.941182 115.630 99.3977
3232.194493 115.490 99.8094
3255.616307 115.354 100.2910
3279.207844 115.224 100.8326
3302.970336 115.099 101.4219
3326.905021 114.981 102.0456
3351.013146 114.870 102.6904
3375.295969 114.763 103.3444
3399.754755 114.660 103.9987
3424.390779 114.559 104.6485
3449.205326 114.457 105.2937
3474.199690 114.354 105.9387
3499.375173 114.247 106.5916
3524.733088 114.136 107.2626
3550.274757 114.021 107.9628
3576.001511 113.901 108.7029
3601.914692 113.778 109.4921
3628.015651 113.652 110.3372
3654.305748 113.525 111.2425
3680.786354 113.399 112.2094
3707.458849 113.274 113.2365
3734.324624 113.152 114.3202
3761.385080 113.035 115.4553
3788.641627 112.921 116.6360
3816.095686 112.813 117.8569
3843.748688 112.710 119.1127
3871.602076 112.611 120.3987
3899.657300 112.518 121.7114
3927.915825 112.428 123.0485
3956.379122 112.344 124.4084
3985.048676 112.263 125.7902
4013.925981 112.187 127.1935
4043.012544 112.115 128.6177
4072.309879 112.047 130.0623
4101.819515 111.983 131.5267
4131.542990 111.924 133.0099
4161.481854 111.869 134.5102
4191.637667 111.819 136.0259
4222.012001 111.774 137.5548
4252.606441 111.734 139.0947
4283.422580 111.698 140.6431
4314.462026 111.667 142.1980
4345.726396 111.641 143.7576
4377.217321 111.619 145.3209
4408.936442 111.600 146.8873
4440.885413 111.586 148.4562
4473.065899 111.575 150.0279
4505.479579 111.568 151.6031
4538.128141 111.564 153.1834
4571.013288 111.564 154.7703
4604.136735 111.567 156.3654
4637.500207 111.574 157.9703
4671.105446 111.585 159.5867
4704.954201 111.602 161.2158
4739.048239 111.624 162.8577
4773.389336 111.653 164.5109
4807.979283 111.690 166.1718
4842.819883 111.736 167.8345
4877.912952 111.792 169.4906
4913.260320 111.858 171.1295
4948.863830 111.934 172.7392
4984.725337 112.021 174.3074
5020.846712 112.117 175.8227
5057.229836 112.222 177.2747
5093.876609 112.333 178.6557
5130.788938 112.451 179.9603
5167.968750 112.573 -178.8145
5205.417982 112.698 -177.6694
5243.138586 112.826 -176.6045
5281.132530 112.956 -175.6194
5319.401793 113.089 -174.7156
5357.948371 113.224 -173.8968
5396.774274 113.363 -173.1711
5435.881525 113.506 -172.5525
5475.272163 113.653 -172.0621
5514.948243 113.804 -171.7283
5554.911831 113.955 -171.5843
5595.165012 114.101 -171.6652
5635.709884 114.234 -172.0004
5676.548561 114.343 -172.6051
5717.683172 114.414 -173.4706
5759.115861 114.432 -174.5557
5800.848789 114.385 -175.7838
5842.884130 114.263 -177.0460
5885.224077 114.062 -178.2128
5927.870837 113.785 -179.1503
5970.826633 113.441 -179.7406
6014.093704 113.045 -179.8965
6057.674306 112.615 -179.5711
6101.570711 112.170 -178.7582
6145.785208 111.727 -177.4857
6190.320101 111.300 -175.8056
6235.177712 110.899 -173.7826
6280.360380 110.529 -171.4841
6325.870460 110.195 -168.9727
6371.710325 109.897 -166.3006
6417.882365 109.633 -163.5086
6464.388986 109.402 -160.6273
6511.232613 109.201 -157.6793
6558.415689 109.029 -154.6825
6605.940673 108.884 -151.6517
6653.810042 108.763 -148.5990
6702.026292 108.667 -145.5323
6750.591937 108.592 -142.4546
6799.509509 108.540 -139.3658
6848.781558 108.509 -136.2668
6898.410653 108.501 -133.1613
6948.399380 108.517 -130.0558
6998.750346 108.558 -126.9594
7049.466176 108.626 -123.8833
7100.549514 108.722 -120.8412
7152.003023 108.848 -117.8495
7203.829385 109.006 -114.9290
7256.031302 109.197 -112.1066
7308.611496 109.425 -109.4169
7361.572708 109.689 -106.9038
7414.917698 109.989 -104.6176
7468.649249 110.324 -102.6117
7522.770160 110.690 -100.9425
7577.283253 111.081 -99.6692
7632.191371 111.490 -98.8519
7687.497376 111.904 -98.5463
7743.204151 112.309 -98.7964
7799.314600 112.685 -99.6257
7855.831649 113.012 -101.0281
7912.758244 113.266 -102.9594
7970.097352 113.426 -105.3298
8027.851962 113.471 -108.0006
8086.025087 113.388 -110.7867
8144.619758 113.176 -113.4726
8203.639030 112.844 -115.8484
8263.085980 112.421 -117.7713
8322.963708 111.938 -119.2195
8383.275334 111.422 -120.2673
8444.024002 110.883 -120.9903
8505.212881 110.328 -121.4570
8566.845160 109.751 -121.7399
8628.924051 109.138 -121.8319
8691.452792 108.473 -121.6251
8754.434642 107.756 -120.9838
8817.872884 106.993 -119.8038
8881.770826 106.198 -118.0219
8946.131799 105.387 -115.6006
9010.959157 104.574 -112.5103
9076.256282 103.775 -108.7232
9142.026576 103.011 -104.2292
9208.273470 102.302 -99.0714
9275.000415 101.673 -93.3805
9342.210891 101.142 -87.3727
9409.908403 100.713 -81.2902
9478.096478 100.378 -75.3229
9546.778672 100.123 -69.5785
9615.958566 99.928 -64.0997
9685.639765 99.775 -58.8779
9755.825904 99.651 -53.8605
9826.520640 99.544 -48.9696
9897.727659 99.454 -44.1276
9969.450674 99.383 -39.2804
10041.693423 99.338 -34.4116
10114.459673 99.325 -29.5460
10187.753217 99.349 -24.7377
10261.577877 99.410 -20.0522
10335.937500 99.505 -15.5479
10410.835964 99.628 -11.2635
10486.277173 99.773 -7.2172
10562.265060 99.935 -3.4137
10638.803587 100.111 0.1437
10715.896743 100.299 3.4426
10793.548548 100.494 6.4577
10871.763050 100.690 9.1553
10950.544327 100.877 11.5071
11029.896485 101.042 13.5082
11109.823662 101.170 15.1941
11190.330024 101.247 16.6498
11271.419768 101.267 18.0012
11353.097122 101.235 19.3827
11435.366344 101.166 20.8832
11518.231722 101.081 22.4960
11601.697577 100.993 24.1169
11685.768261 100.900 25.6090
11770.448155 100.781 26.8921
11855.741674 100.611 27.9931
11941.653265 100.368 29.0363
12028.187408 100.042 30.2002
12115.348612 99.633 31.6729
12203.141422 99.151 33.6226
12291.570415 98.614 36.1817
12380.640201 98.044 39.4407
12470.355424 97.466 43.4471
12560.720760 96.904 48.2053
12651.740920 96.385 53.6761
12743.420650 95.931 59.7777
12835.764729 95.562 66.3909
12928.777972 95.291 73.3688
13022.465227 95.125 80.5520
13116.831378 95.064 87.7864
13211.881345 95.104 94.9404
13307.620084 95.233 101.9176
13404.052584 95.441 108.6597
13501.183875 95.717 115.1421
13599.019019 96.054 121.3636
13697.563116 96.448 127.3350
13796.821305 96.898 133.0668
13896.798760 97.406 138.5621
13997.500692 97.976 143.8088
14098.932352 98.614 148.7766
14201.099028 99.325 153.4119
14304.006046 100.111 157.6350
14407.658770 100.970 161.3397
14512.062604 101.892 164.4016
14617.222992 102.859 166.6926
14723.145416 103.845 168.0992
14829.835397 104.817 168.5388
14937.298497 105.740 167.9754
15045.540320 106.574 166.4338
15154.566507 107.285 164.0107
15264.382743 107.840 160.8809
15374.994752 108.220 157.2898
15486.408302 108.419 153.5300
15598.629201 108.447 149.8989
15711.663298 108.335 146.6478
15825.516487 108.127 143.9383
15940.194703 107.874 141.8156
16055.703925 107.628 140.2036
16172.050174 107.430 138.9212
16289.239516 107.302 137.7219
16407.278061 107.238 136.3492
16526.171961 107.208 134.5964
16645.927415 107.164 132.3544
16766.550667 107.051 129.6379
16888.048005 106.820 126.5881
17010.425762 106.433 123.4489
17133.690320 105.873 120.5237
17257.848103 105.138 118.1225
17382.905584 104.246 116.5178
17508.869284 103.224 115.9199
17635.745768 102.107 116.4690
17763.541652 100.934 118.2383
17892.263597 99.744 121.2426
18021.918315 98.580 125.4471
18152.512564 97.484 130.7722
18284.053153 96.497 137.0836
18416.546939 95.659 144.1745
18550.000830 95.003 151.7592
18684.421783 94.541 159.5055
18819.816805 94.268 167.1089
18956.192956 94.158 174.3596
19093.557344 94.180 -178.8475
19231.917131 94.302 -172.5529
19371.279531 94.494 -166.7790
19511.651807 94.722 -161.5294
19653.041280 94.944 -156.7432
19795.455318 95.121 -152.2595
19938.901348 95.219 -147.8476
