* Measurement data measured by REW V5.31.3
* Source: Input device not selected, no input selected, L, volume: 1,000
* Format: 256k Log Swept Sine, 1 sweep at -20,0 dBFS with no timing reference
* Dated: 26.05.2025 16:28:59
* REW Settings:
*  C-weighting compensation: Off
*  Target level: 75.0 dB
* Note: 
* Measurement: Huawei Freebuds Pro 4
* Smoothing: 1/12 octave
* Frequency Step: 96 ppo
* Start Frequency: 20.187378 Hz
*
* Freq(Hz) SPL(dB) Phase(degrees)
20.187378 114.873 31.4565
20.333664 114.877 31.2452
20.481010 114.882 30.9334
20.629424 114.889 30.5504
20.778913 114.895 30.1215
20.929486 114.902 29.6650
21.081150 114.908 29.1930
21.233912 114.914 28.7128
21.387782 114.919 28.2287
21.542767 114.925 27.7426
21.698874 114.929 27.2556
21.856113 114.934 26.7684
22.014492 114.938 26.2810
22.174018 114.941 25.7939
22.334700 114.944 25.3072
22.496546 114.945 24.8212
22.659566 114.946 24.3364
22.823766 114.945 23.8530
22.989157 114.943 23.3712
23.155745 114.940 22.8912
23.323542 114.937 22.4129
23.492554 114.932 21.9360
23.662790 114.927 21.4603
23.834261 114.921 20.9855
24.006973 114.915 20.5114
24.180938 114.908 20.0376
24.356163 114.902 19.5642
24.532658 114.896 19.0913
24.710431 114.890 18.6189
24.889493 114.884 18.1473
25.069853 114.879 17.6765
25.251519 114.874 17.2066
25.434502 114.869 16.7373
25.618811 114.864 16.2686
25.804456 114.860 15.7999
25.991445 114.855 15.3311
26.179790 114.850 14.8618
26.369500 114.844 14.3918
26.560584 114.838 13.9212
26.753053 114.830 13.4499
26.946917 114.822 12.9780
27.142185 114.813 12.5056
27.338869 114.802 12.0328
27.536977 114.791 11.5598
27.736522 114.779 11.0865
27.937512 114.766 10.6136
28.139959 114.753 10.1414
28.343872 114.739 9.6712
28.549264 114.724 9.2041
28.756143 114.709 8.7416
28.964522 114.693 8.2851
29.174411 114.677 7.8357
29.385821 114.661 7.3938
29.598763 114.644 6.9595
29.813248 114.628 6.5318
30.029287 114.611 6.1095
30.246891 114.595 5.6908
30.466073 114.577 5.2740
30.686842 114.559 4.8575
30.909212 114.540 4.4402
31.133193 114.520 4.0211
31.358797 114.497 3.5998
31.586035 114.474 3.1759
31.814921 114.448 2.7492
32.045465 114.422 2.3195
32.277680 114.394 1.8870
32.511577 114.365 1.4520
32.747169 114.336 1.0157
32.984469 114.306 0.5796
33.223488 114.276 0.1461
33.464239 114.246 -0.2820
33.706735 114.217 -0.7014
33.950987 114.187 -1.1090
34.197010 114.157 -1.5022
34.444816 114.127 -1.8796
34.694417 114.097 -2.2415
34.945827 114.066 -2.5902
35.199059 114.034 -2.9297
35.454126 114.002 -3.2659
35.711041 113.969 -3.6052
35.969818 113.935 -3.9533
36.230470 113.900 -4.3141
36.493011 113.864 -4.6887
36.757455 113.827 -5.0750
37.023814 113.789 -5.4685
37.292104 113.750 -5.8630
37.562338 113.711 -6.2521
37.834530 113.670 -6.6311
38.108695 113.628 -6.9974
38.384846 113.585 -7.3513
38.662999 113.539 -7.6959
38.943167 113.490 -8.0366
39.225365 113.440 -8.3797
39.509608 113.388 -8.7304
39.795911 113.336 -9.0904
40.084289 113.283 -9.4557
40.374756 113.232 -9.8158
40.667328 113.181 -10.1552
40.962020 113.133 -10.4578
41.258848 113.086 -10.7131
41.557827 113.041 -10.9204
41.858972 112.994 -11.0896
42.162299 112.942 -11.2376
42.467824 112.883 -11.3806
42.775564 112.815 -11.5285
43.085533 112.739 -11.6831
43.397749 112.661 -11.8407
43.712227 112.587 -11.9980
44.028983 112.525 -12.1522
44.348036 112.476 -12.2940
44.669400 112.438 -12.3961
44.993093 112.401 -12.4071
45.319131 112.359 -12.2637
45.647532 112.308 -11.9225
45.978313 112.251 -11.4013
46.311491 112.194 -10.8071
46.647083 112.139 -10.3233
46.985107 112.084 -10.1484
47.325581 112.018 -10.4133
47.668521 111.932 -11.1198
48.013947 111.827 -12.1326
48.361876 111.721 -13.2273
48.712326 111.642 -14.1751
49.065315 111.620 -14.8318
49.420863 111.666 -15.1843
49.778987 111.768 -15.3229
50.139706 111.890 -15.3618
50.503039 111.994 -15.3729
50.869005 112.050 -15.3728
51.237623 112.051 -15.3537
51.608912 112.005 -15.3219
51.982891 111.928 -15.3126
52.359580 111.839 -15.3720
52.739000 111.751 -15.5251
53.121168 111.673 -15.7545
53.506106 111.607 -16.0091
53.893833 111.552 -16.2331
54.284370 111.506 -16.3943
54.677737 111.464 -16.4928
55.073955 111.422 -16.5510
55.473043 111.377 -16.5972
55.875024 111.331 -16.6529
56.279917 111.286 -16.7299
56.687745 111.243 -16.8298
57.098527 111.205 -16.9462
57.512287 111.169 -17.0685
57.929045 111.134 -17.1865
58.348822 111.098 -17.2962
58.771642 111.058 -17.4006
59.197525 111.015 -17.5063
59.626495 110.970 -17.6180
60.058573 110.924 -17.7343
60.493782 110.878 -17.8489
60.932145 110.833 -17.9541
61.373685 110.789 -18.0451
61.818424 110.744 -18.1229
62.266386 110.699 -18.1931
62.717593 110.653 -18.2625
63.172071 110.607 -18.3356
63.629842 110.561 -18.4126
64.090930 110.515 -18.4903
64.555359 110.471 -18.5640
65.023154 110.427 -18.6304
65.494339 110.383 -18.6883
65.968938 110.338 -18.7393
66.446976 110.294 -18.7864
66.928478 110.250 -18.8331
67.413469 110.207 -18.8806
67.901975 110.164 -18.9271
68.394021 110.121 -18.9685
68.889632 110.077 -19.0013
69.388835 110.031 -19.0241
69.891655 109.985 -19.0375
70.398118 109.939 -19.0428
70.908252 109.892 -19.0408
71.422083 109.847 -19.0322
71.939636 109.804 -19.0179
72.460941 109.763 -18.9987
72.986023 109.723 -18.9745
73.514909 109.684 -18.9442
74.047629 109.644 -18.9071
74.584208 109.604 -18.8652
75.124676 109.563 -18.8230
75.669061 109.522 -18.7850
76.217390 109.481 -18.7532
76.769692 109.440 -18.7275
77.325997 109.398 -18.7061
77.886333 109.356 -18.6868
78.450730 109.313 -18.6658
79.019216 109.270 -18.6385
79.591822 109.227 -18.6013
80.168577 109.184 -18.5530
80.749512 109.142 -18.4961
81.334656 109.100 -18.4357
81.924040 109.059 -18.3782
82.517696 109.017 -18.3287
83.115653 108.975 -18.2893
83.717943 108.933 -18.2583
84.324598 108.890 -18.2325
84.935649 108.847 -18.2096
85.551128 108.804 -18.1876
86.171066 108.760 -18.1632
86.795497 108.714 -18.1308
87.424453 108.666 -18.0849
88.057967 108.617 -18.0236
88.696071 108.568 -17.9487
89.338800 108.519 -17.8636
89.986185 108.472 -17.7709
90.638262 108.427 -17.6711
91.295065 108.383 -17.5647
91.956626 108.341 -17.4548
92.622982 108.300 -17.3481
93.294166 108.260 -17.2532
93.970214 108.221 -17.1753
94.651161 108.180 -17.1119
95.337042 108.137 -17.0525
96.027894 108.092 -16.9819
96.723752 108.043 -16.8862
97.424652 107.992 -16.7577
98.130631 107.937 -16.5969
98.841726 107.880 -16.4098
99.557974 107.820 -16.2032
100.279412 107.760 -15.9778
101.006078 107.701 -15.7242
101.738010 107.648 -15.4309
102.475245 107.602 -15.1003
103.217823 107.567 -14.7593
103.965782 107.540 -14.4524
104.719161 107.516 -14.2166
105.477999 107.487 -14.0470
106.242336 107.445 -13.8810
107.012212 107.391 -13.6227
107.787666 107.334 -13.2065
108.568740 107.288 -12.6537
109.355474 107.260 -12.0582
110.147909 107.247 -11.5062
110.946086 107.245 -11.0175
111.750047 107.249 -10.5646
112.559834 107.258 -10.1282
113.375489 107.272 -9.7232
114.197055 107.289 -9.3793
115.024574 107.307 -9.1088
115.858089 107.324 -8.9085
116.697645 107.341 -8.7738
117.543284 107.358 -8.6909
118.395051 107.372 -8.6341
119.252990 107.382 -8.5823
120.117147 107.385 -8.5257
120.987565 107.384 -8.4641
121.864291 107.380 -8.4013
122.747370 107.375 -8.3373
123.636848 107.368 -8.2689
124.532771 107.357 -8.1927
125.435187 107.342 -8.1049
126.344142 107.325 -8.0002
127.259684 107.308 -7.8688
128.181860 107.291 -7.7005
129.110718 107.271 -7.4948
130.046308 107.248 -7.2679
130.988677 107.225 -7.0463
131.937875 107.204 -6.8491
132.893951 107.189 -6.6765
133.856956 107.180 -6.5167
134.826938 107.174 -6.3605
135.803950 107.168 -6.2041
136.788041 107.161 -6.0452
137.779264 107.152 -5.8804
138.777669 107.142 -5.7086
139.783309 107.130 -5.5313
140.796237 107.117 -5.3503
141.816504 107.104 -5.1658
142.844165 107.091 -4.9744
143.879273 107.080 -4.7699
144.921881 107.069 -4.5490
145.972045 107.058 -4.3208
147.029819 107.047 -4.1037
148.095257 107.036 -3.9069
149.168417 107.027 -3.7177
150.249353 107.020 -3.5130
151.338121 107.013 -3.2809
152.434780 107.007 -3.0299
153.539385 107.000 -2.7766
154.651995 106.994 -2.5298
155.772667 106.989 -2.2894
156.901460 106.985 -2.0520
158.038432 106.982 -1.8150
159.183644 106.980 -1.5778
160.337154 106.979 -1.3407
161.499023 106.978 -1.1042
162.669312 106.978 -0.8679
163.848081 106.978 -0.6303
165.035392 106.979 -0.3902
166.231306 106.980 -0.1484
167.435887 106.982 0.0927
168.649196 106.985 0.3320
169.871298 106.991 0.5698
171.102255 106.999 0.8080
172.342133 107.009 1.0487
173.590995 107.022 1.2920
174.848907 107.038 1.5340
176.115934 107.053 1.7703
177.392143 107.068 2.0014
178.677599 107.082 2.2292
179.972371 107.095 2.4519
181.276525 107.108 2.6667
182.590129 107.121 2.8734
183.913252 107.135 3.0723
185.245964 107.150 3.2640
186.588332 107.167 3.4493
187.940428 107.185 3.6303
189.302322 107.203 3.8094
190.674085 107.222 3.9863
192.055788 107.242 4.1593
193.447503 107.263 4.3269
194.849303 107.284 4.4890
196.261262 107.307 4.6462
197.683452 107.330 4.7987
199.115948 107.354 4.9454
200.558824 107.377 5.0844
202.012156 107.401 5.2155
203.476019 107.424 5.3402
204.950490 107.448 5.4608
206.435646 107.472 5.5788
207.931564 107.496 5.6944
209.438322 107.521 5.8064
210.955998 107.545 5.9122
212.484672 107.571 6.0078
214.024424 107.597 6.0896
215.575333 107.623 6.1573
217.137481 107.650 6.2145
218.710948 107.677 6.2657
220.295818 107.702 6.3136
221.892172 107.727 6.3584
223.500094 107.751 6.3993
225.119668 107.775 6.4350
226.750978 107.798 6.4641
228.394109 107.821 6.4842
230.049147 107.844 6.4942
231.716178 107.867 6.4955
233.395289 107.891 6.4909
235.086567 107.914 6.4812
236.790102 107.936 6.4653
238.505980 107.958 6.4420
240.234293 107.978 6.4120
241.975130 107.998 6.3765
243.728581 108.017 6.3372
245.494739 108.034 6.2952
247.273695 108.051 6.2518
249.065542 108.067 6.2089
250.870374 108.082 6.1689
252.688284 108.096 6.1316
254.519367 108.108 6.0938
256.363720 108.120 6.0521
258.221437 108.131 6.0053
260.092616 108.142 5.9537
261.977354 108.151 5.8981
263.875750 108.161 5.8397
265.787903 108.169 5.7792
267.713911 108.176 5.7171
269.653877 108.183 5.6533
271.607900 108.188 5.5882
273.576083 108.193 5.5229
275.558528 108.197 5.4585
277.555338 108.200 5.3960
279.566619 108.203 5.3356
281.592474 108.205 5.2771
283.633009 108.206 5.2204
285.688331 108.206 5.1653
287.758546 108.206 5.1116
289.843763 108.205 5.0591
291.944090 108.203 5.0071
294.059638 108.201 4.9551
296.190515 108.198 4.9044
298.336833 108.194 4.8563
300.498705 108.189 4.8113
302.676243 108.184 4.7695
304.869559 108.178 4.7322
307.078770 108.172 4.7012
309.303989 108.164 4.6772
311.545334 108.156 4.6581
313.802919 108.147 4.6416
316.076865 108.139 4.6263
318.367288 108.131 4.6124
320.674309 108.122 4.6005
322.998047 108.114 4.5911
325.338624 108.105 4.5851
327.696162 108.096 4.5834
330.070783 108.087 4.5869
332.462612 108.077 4.5962
334.871773 108.068 4.6108
337.298392 108.058 4.6304
339.742595 108.049 4.6549
342.204510 108.040 4.6837
344.684265 108.031 4.7164
347.181989 108.022 4.7527
349.697813 108.013 4.7927
352.231868 108.004 4.8364
354.784285 107.994 4.8832
357.355198 107.985 4.9322
359.944741 107.976 4.9821
362.553049 107.967 5.0320
365.180258 107.959 5.0817
367.826505 107.951 5.1317
370.491927 107.944 5.1829
373.176665 107.937 5.2356
375.880856 107.930 5.2897
378.604644 107.924 5.3447
381.348169 107.918 5.3997
384.111575 107.912 5.4544
386.895006 107.906 5.5094
389.698607 107.900 5.5648
392.522524 107.894 5.6210
395.366904 107.888 5.6785
398.231895 107.883 5.7377
401.117648 107.878 5.7983
404.024312 107.873 5.8595
406.952038 107.869 5.9203
409.900981 107.865 5.9803
412.871292 107.861 6.0394
415.863128 107.857 6.0972
418.876643 107.853 6.1528
421.911996 107.850 6.2056
424.969344 107.846 6.2556
428.048847 107.842 6.3035
431.150666 107.838 6.3504
434.274961 107.835 6.3968
437.421897 107.831 6.4422
440.591636 107.828 6.4862
443.784345 107.824 6.5282
447.000189 107.820 6.5685
450.239337 107.817 6.6078
453.501956 107.813 6.6466
456.788219 107.809 6.6840
460.098294 107.804 6.7190
463.432356 107.799 6.7509
466.790578 107.794 6.7802
470.173135 107.789 6.8075
473.580203 107.782 6.8335
477.011961 107.775 6.8589
480.468586 107.768 6.8840
483.950259 107.759 6.9085
487.457163 107.750 6.9316
490.989478 107.741 6.9528
494.547390 107.731 6.9724
498.131084 107.720 6.9913
501.740748 107.710 7.0112
505.376568 107.699 7.0332
509.038735 107.687 7.0579
512.727439 107.674 7.0854
516.442874 107.661 7.1156
520.185232 107.647 7.1481
523.954708 107.632 7.1828
527.751500 107.617 7.2198
531.575805 107.600 7.2595
535.427822 107.583 7.3025
539.307753 107.565 7.3490
543.215800 107.546 7.3998
547.152165 107.526 7.4553
551.117055 107.506 7.5159
555.110677 107.485 7.5815
559.133237 107.463 7.6521
563.184947 107.441 7.7280
567.266018 107.419 7.8098
571.376661 107.396 7.8979
575.517092 107.373 7.9924
579.687526 107.349 8.0931
583.888181 107.326 8.2000
588.119275 107.302 8.3131
592.381030 107.278 8.4329
596.673667 107.253 8.5597
600.997410 107.229 8.6942
605.352485 107.204 8.8369
609.739119 107.179 8.9883
614.157540 107.154 9.1480
618.607979 107.129 9.3156
623.090667 107.104 9.4903
627.605839 107.079 9.6722
632.153730 107.055 9.8613
636.734576 107.031 10.0579
641.348617 107.007 10.2622
645.996094 106.984 10.4744
650.677248 106.961 10.6946
655.392323 106.937 10.9229
660.141566 106.914 11.1588
664.925224 106.891 11.4023
669.743546 106.869 11.6536
674.596784 106.848 11.9128
679.485191 106.827 12.1800
684.409020 106.807 12.4548
689.368530 106.788 12.7368
694.363979 106.770 13.0257
699.395626 106.753 13.3210
704.463736 106.737 13.6229
709.568570 106.722 13.9309
714.710396 106.707 14.2449
719.889483 106.694 14.5645
725.106099 106.681 14.8897
730.360516 106.670 15.2205
735.653010 106.660 15.5573
740.983855 106.651 15.8996
746.353329 106.643 16.2468
751.761713 106.637 16.5979
757.209288 106.632 16.9522
762.696339 106.628 17.3094
768.223151 106.626 17.6698
773.790013 106.624 18.0333
779.397214 106.624 18.4000
785.045047 106.625 18.7693
790.733808 106.628 19.1409
796.463791 106.631 19.5139
802.235296 106.636 19.8881
808.048623 106.643 20.2636
813.904077 106.651 20.6406
819.801961 106.661 21.0187
825.742584 106.672 21.3971
831.726255 106.685 21.7749
837.753287 106.699 22.1517
843.823992 106.714 22.5271
849.938689 106.731 22.9005
856.097695 106.749 23.2712
862.301332 106.768 23.6388
868.549922 106.789 24.0037
874.843793 106.811 24.3660
881.183272 106.835 24.7253
887.568689 106.859 25.0809
894.000378 106.885 25.4325
900.478673 106.912 25.7799
907.003913 106.940 26.1231
913.576437 106.969 26.4615
920.196588 106.999 26.7946
926.864712 107.031 27.1223
933.581156 107.062 27.4445
940.346270 107.095 27.7606
947.160407 107.130 28.0696
954.023921 107.165 28.3708
960.937172 107.201 28.6642
967.900519 107.239 28.9505
974.914325 107.277 29.2297
981.978956 107.315 29.5019
989.094780 107.354 29.7670
996.262169 107.394 30.0253
1003.481495 107.434 30.2772
1010.753136 107.475 30.5225
1018.077470 107.515 30.7612
1025.454879 107.557 30.9932
1032.885748 107.598 31.2185
1040.370463 107.640 31.4366
1047.909417 107.682 31.6464
1055.503000 107.723 31.8465
1063.151610 107.764 32.0376
1070.855645 107.806 32.2215
1078.615506 107.847 32.3996
1086.431599 107.887 32.5724
1094.304330 107.928 32.7400
1102.234110 107.969 32.9025
1110.221353 108.009 33.0595
1118.266475 108.049 33.2107
1126.369895 108.088 33.3562
1134.532035 108.127 33.4970
1142.753322 108.166 33.6345
1151.034184 108.205 33.7703
1159.375052 108.243 33.9053
1167.776361 108.282 34.0391
1176.238550 108.320 34.1711
1184.762060 108.358 34.3013
1193.347334 108.395 34.4300
1201.994821 108.432 34.5575
1210.704971 108.468 34.6846
1219.478238 108.504 34.8118
1228.315080 108.539 34.9396
1237.215957 108.575 35.0675
1246.181334 108.610 35.1939
1255.211678 108.645 35.3175
1264.307459 108.681 35.4384
1273.469152 108.716 35.5583
1282.697235 108.751 35.6786
1291.992188 108.787 35.8004
1301.354495 108.822 35.9241
1310.784647 108.857 36.0495
1320.283132 108.893 36.1762
1329.850448 108.929 36.3041
1339.487093 108.965 36.4338
1349.193569 109.002 36.5661
1358.970381 109.039 36.7016
1368.818041 109.076 36.8399
1378.737061 109.114 36.9795
1388.727958 109.153 37.1193
1398.791253 109.192 37.2585
1408.927471 109.232 37.3967
1419.137140 109.273 37.5339
1429.420793 109.314 37.6701
1439.778965 109.357 37.8060
1450.212197 109.400 37.9422
1460.721033 109.444 38.0788
1471.306019 109.489 38.2154
1481.967709 109.535 38.3513
1492.706658 109.582 38.4856
1503.523426 109.629 38.6181
1514.418576 109.678 38.7483
1525.392678 109.728 38.8761
1536.446302 109.778 39.0012
1547.580025 109.830 39.1231
1558.794428 109.883 39.2412
1570.090095 109.937 39.3551
1581.467615 109.992 39.4642
1592.927581 110.049 39.5681
1604.470591 110.107 39.6657
1616.097246 110.166 39.7563
1627.808153 110.227 39.8386
1639.603922 110.289 39.9120
1651.485168 110.352 39.9756
1663.452510 110.416 40.0289
1675.506573 110.480 40.0713
1687.647984 110.545 40.1024
1699.877377 110.611 40.1219
1712.195390 110.677 40.1298
1724.602663 110.744 40.1264
1737.099845 110.811 40.1121
1749.687587 110.878 40.0872
1762.366544 110.945 40.0519
1775.137379 111.013 40.0058
1788.000756 111.081 39.9488
1800.957346 111.148 39.8809
1814.007826 111.216 39.8021
1827.152874 111.283 39.7125
1840.393177 111.351 39.6117
1853.729425 111.418 39.4998
1867.162312 111.485 39.3769
1880.692540 111.552 39.2430
1894.320813 111.618 39.0980
1908.047843 111.684 38.9417
1921.874344 111.750 38.7742
1935.801038 111.815 38.5957
1949.828650 111.880 38.4059
1963.957912 111.944 38.2049
1978.189561 112.008 37.9924
1992.524338 112.070 37.7691
2006.962991 112.132 37.5352
2021.506272 112.193 37.2912
2036.154940 112.253 37.0368
2050.909758 112.313 36.7717
2065.771495 112.371 36.4958
2080.740927 112.428 36.2091
2095.818833 112.484 35.9116
2111.006001 112.539 35.6032
2126.303220 112.592 35.2838
2141.711290 112.644 34.9535
2157.231013 112.694 34.6122
2172.863198 112.742 34.2599
2188.608660 112.788 33.8966
2204.468221 112.831 33.5234
2220.442706 112.871 33.1431
2236.532950 112.907 32.7610
2252.739789 112.938 32.3858
2269.064070 112.966 32.0298
2285.506644 112.992 31.7070
2302.068367 113.019 31.4268
2318.750104 113.052 31.1820
2335.552723 113.094 30.9407
2352.477101 113.144 30.6563
2369.524119 113.197 30.2994
2386.694668 113.246 29.8748
2403.989641 113.288 29.4077
2421.409941 113.321 28.9252
2438.956476 113.348 28.4468
2456.630160 113.370 27.9834
2474.431915 113.389 27.5390
2492.362668 113.405 27.1128
2510.423356 113.421 26.7019
2528.614918 113.436 26.3021
2546.938304 113.452 25.9095
2565.394469 113.468 25.5203
2583.984375 113.485 25.1308
2602.708991 113.502 24.7381
2621.569293 113.518 24.3404
2640.566265 113.535 23.9361
2659.700897 113.551 23.5235
2678.974186 113.566 23.1011
2698.387137 113.579 22.6679
2717.940763 113.591 22.2246
2737.636082 113.599 21.7751
2757.474121 113.603 21.3275
2777.455915 113.604 20.8944
2797.582506 113.605 20.4900
2817.854942 113.607 20.1204
2838.274281 113.617 19.7701
2858.841586 113.635 19.3956
2879.557931 113.660 18.9466
2900.424394 113.682 18.4048
2921.442065 113.694 17.7920
2942.612039 113.696 17.1449
2963.935418 113.686 16.4943
2985.413316 113.666 15.8587
3007.046852 113.640 15.2465
3028.837153 113.608 14.6600
3050.785356 113.573 14.0982
3072.892604 113.534 13.5592
3095.160050 113.492 13.0412
3117.588856 113.447 12.5432
3140.180190 113.400 12.0650
3162.935230 113.350 11.6068
3185.855163 113.299 11.1696
3208.941182 113.245 10.7546
3232.194493 113.191 10.3623
3255.616307 113.135 9.9928
3279.207844 113.079 9.6446
3302.970336 113.023 9.3153
3326.905021 112.967 9.0020
3351.013146 112.912 8.7015
3375.295969 112.856 8.4108
3399.754755 112.801 8.1275
3424.390779 112.744 7.8503
3449.205326 112.687 7.5798
3474.199690 112.629 7.3179
3499.375173 112.569 7.0672
3524.733088 112.508 6.8307
3550.274757 112.446 6.6116
3576.001511 112.382 6.4120
3601.914692 112.319 6.2329
3628.015651 112.256 6.0736
3654.305748 112.193 5.9322
3680.786354 112.132 5.8066
3707.458849 112.071 5.6941
3734.324624 112.013 5.5926
3761.385080 111.955 5.4998
3788.641627 111.899 5.4142
3816.095686 111.844 5.3348
3843.748688 111.789 5.2614
3871.602076 111.736 5.1943
3899.657300 111.684 5.1340
3927.915825 111.632 5.0813
3956.379122 111.581 5.0372
3985.048676 111.532 5.0025
4013.925981 111.484 4.9775
4043.012544 111.438 4.9620
4072.309879 111.393 4.9559
4101.819515 111.350 4.9585
4131.542990 111.310 4.9685
4161.481854 111.272 4.9842
4191.637667 111.236 5.0039
4222.012001 111.203 5.0257
4252.606441 111.172 5.0481
4283.422580 111.144 5.0696
4314.462026 111.118 5.0890
4345.726396 111.095 5.1054
4377.217321 111.074 5.1180
4408.936442 111.056 5.1258
4440.885413 111.040 5.1275
4473.065899 111.026 5.1219
4505.479579 111.015 5.1085
4538.128141 111.006 5.0867
4571.013288 110.999 5.0561
4604.136735 110.994 5.0158
4637.500207 110.991 4.9645
4671.105446 110.990 4.9012
4704.954201 110.990 4.8251
4739.048239 110.993 4.7351
4773.389336 110.997 4.6305
4807.979283 111.002 4.5107
4842.819883 111.009 4.3752
4877.912952 111.016 4.2236
4913.260320 111.025 4.0554
4948.863830 111.035 3.8702
4984.725337 111.045 3.6682
5020.846712 111.056 3.4499
5057.229836 111.068 3.2157
5093.876609 111.080 2.9660
5130.788938 111.093 2.7007
5167.968750 111.106 2.4197
5205.417982 111.119 2.1230
5243.138586 111.133 1.8108
5281.132530 111.147 1.4828
5319.401793 111.161 1.1386
5357.948371 111.175 0.7779
5396.774274 111.188 0.3999
5435.881525 111.202 0.0028
5475.272163 111.215 -0.4149
5514.948243 111.227 -0.8552
5554.911831 111.237 -1.3190
5595.165012 111.247 -1.8073
5635.709884 111.254 -2.3206
5676.548561 111.259 -2.8594
5717.683172 111.261 -3.4247
5759.115861 111.260 -4.0176
5800.848789 111.254 -4.6380
5842.884130 111.243 -5.2823
5885.224077 111.226 -5.9440
5927.870837 111.202 -6.6145
5970.826633 111.171 -7.2852
6014.093704 111.133 -7.9473
6057.674306 111.087 -8.5923
6101.570711 111.035 -9.2118
6145.785208 110.977 -9.7977
6190.320101 110.914 -10.3421
6235.177712 110.847 -10.8378
6280.360380 110.776 -11.2777
6325.870460 110.705 -11.6551
6371.710325 110.635 -11.9649
6417.882365 110.570 -12.2066
6464.388986 110.514 -12.3899
6511.232613 110.471 -12.5391
6558.415689 110.442 -12.6919
6605.940673 110.425 -12.8839
6653.810042 110.417 -13.1296
6702.026292 110.415 -13.4226
6750.591937 110.417 -13.7521
6799.509509 110.426 -14.1146
6848.781558 110.443 -14.5153
6898.410653 110.469 -14.9662
6948.399380 110.504 -15.4827
6998.750346 110.549 -16.0820
7049.466176 110.604 -16.7820
7100.549514 110.666 -17.6009
7152.003023 110.735 -18.5582
7203.829385 110.808 -19.6737
7256.031302 110.883 -20.9670
7308.611496 110.956 -22.4567
7361.572708 111.022 -24.1594
7414.917698 111.076 -26.0880
7468.649249 111.111 -28.2515
7522.770160 111.122 -30.6552
7577.283253 111.098 -33.3004
7632.191371 111.029 -36.1775
7687.497376 110.899 -39.2490
7743.204151 110.695 -42.4301
7799.314600 110.406 -45.5980
7855.831649 110.030 -48.6176
7912.758244 109.571 -51.3592
7970.097352 109.036 -53.7044
8027.851962 108.436 -55.5485
8086.025087 107.785 -56.8033
8144.619758 107.101 -57.4012
8203.639030 106.402 -57.2996
8263.085980 105.710 -56.4853
8322.963708 105.047 -54.9790
8383.275334 104.434 -52.8383
8444.024002 103.893 -50.1577
8505.212881 103.439 -47.0652
8566.845160 103.084 -43.7126
8628.924051 102.834 -40.2627
8691.452792 102.687 -36.8743
8754.434642 102.635 -33.6880
8817.872884 102.666 -30.8178
8881.770826 102.764 -28.3465
8946.131799 102.912 -26.3260
9010.959157 103.093 -24.7804
9076.256282 103.291 -23.7103
9142.026576 103.489 -23.0966
9208.273470 103.677 -22.9052
9275.000415 103.841 -23.0899
9342.210891 103.974 -23.5960
9409.908403 104.068 -24.3629
9478.096478 104.119 -25.3268
9546.778672 104.124 -26.4226
9615.958566 104.081 -27.5865
9685.639765 103.993 -28.7588
9755.825904 103.861 -29.8863
9826.520640 103.690 -30.9237
9897.727659 103.483 -31.8350
9969.450674 103.246 -32.5935
10041.693423 102.984 -33.1813
10114.459673 102.702 -33.5875
10187.753217 102.404 -33.8077
10261.577877 102.095 -33.8425
10335.937500 101.779 -33.6965
10410.835964 101.460 -33.3772
10486.277173 101.140 -32.8934
10562.265060 100.822 -32.2547
10638.803587 100.508 -31.4707
10715.896743 100.200 -30.5505
10793.548548 99.899 -29.5030
10871.763050 99.606 -28.3365
10950.544327 99.321 -27.0582
11029.896485 99.044 -25.6738
11109.823662 98.776 -24.1870
11190.330024 98.518 -22.5997
11271.419768 98.269 -20.9124
11353.097122 98.031 -19.1248
11435.366344 97.803 -17.2364
11518.231722 97.587 -15.2465
11601.697577 97.383 -13.1546
11685.768261 97.192 -10.9603
11770.448155 97.013 -8.6636
11855.741674 96.849 -6.2645
11941.653265 96.699 -3.7630
12028.187408 96.565 -1.1596
12115.348612 96.448 1.5449
12203.141422 96.350 4.3498
12291.570415 96.272 7.2548
12380.640201 96.217 10.2594
12470.355424 96.187 13.3624
12560.720760 96.186 16.5613
12651.740920 96.216 19.8525
12743.420650 96.282 23.2303
12835.764729 96.389 26.6857
12928.777972 96.541 30.2046
13022.465227 96.748 33.7656
13116.831378 97.015 37.3360
13211.881345 97.350 40.8682
13307.620084 97.763 44.2960
13404.052584 98.258 47.5311
13501.183875 98.838 50.4626
13599.019019 99.501 52.9619
13697.563116 100.238 54.8924
13796.821305 101.037 56.1220
13896.798760 101.876 56.5366
13997.500692 102.732 56.0487
14098.932352 103.578 54.6034
14201.099028 104.382 52.1837
14304.006046 105.114 48.8202
14407.658770 105.743 44.5982
14512.062604 106.243 39.6561
14617.222992 106.595 34.1747
14723.145416 106.788 28.3609
14829.835397 106.818 22.4290
14937.298497 106.689 16.5832
15045.540320 106.412 11.0061
15154.566507 106.002 5.8509
15264.382743 105.476 1.2386
15374.994752 104.854 -2.7425
15486.408302 104.158 -6.0373
15598.629201 103.407 -8.6223
15711.663298 102.621 -10.5024
15825.516487 101.818 -11.7058
15940.194703 101.015 -12.2758
16055.703925 100.224 -12.2635
16172.050174 99.455 -11.7213
16289.239516 98.717 -10.6987
16407.278061 98.018 -9.2405
16526.171961 97.364 -7.3878
16645.927415 96.761 -5.1813
16766.550667 96.215 -2.6655
16888.048005 95.734 0.1055
17010.425762 95.324 3.0635
17133.690320 94.989 6.1248
17257.848103 94.733 9.1915
17382.905584 94.552 12.1567
17508.869284 94.442 14.9125
17635.745768 94.392 17.3597
17763.541652 94.388 19.4162
17892.263597 94.414 21.0238
18021.918315 94.449 22.1515
18152.512564 94.477 22.7956
18284.053153 94.477 22.9759
18416.546939 94.433 22.7314
18550.000830 94.329 22.1158
18684.421783 94.151 21.1957
18819.816805 93.886 20.0511
18956.192956 93.526 18.7755
19093.557344 93.066 17.4723
19231.917131 92.507 16.2458
19371.279531 91.864 15.1895
19511.651807 91.170 14.3710
19653.041280 90.487 13.8176
19795.455318 89.916 13.5077
19938.901348 89.581 13.3809
