* Measurement data measured by REW V5.20.9
* Source: Input device not selected, no input selected, R, volume: no control
* Format: 256k Log Swept Sine, 1 sweep at -12,0 dBFS with no timing reference
* Dated: 29.08.2022 12:26:55
* REW Settings:
*  C-weighting compensation: Off
*  Target level: 75.0 dB
* Note: 
* Measurement: JQ 4U PRO
* Smoothing: 1/6 octave
* Frequency Step: 96 ppo
* Start Frequency: 20.141602 Hz
*
* Freq(Hz) SPL(dB) Phase(degrees)
20.141602 63.608 -173.5515
20.287556 63.607 -173.6371
20.434568 63.605 -173.7520
20.582645 63.603 -173.8931
20.731796 63.601 -174.0569
20.882027 63.599 -174.2400
21.033346 63.596 -174.4391
21.185763 63.593 -174.6513
21.339284 63.591 -174.8739
21.493917 63.588 -175.1049
21.649671 63.585 -175.3423
21.806553 63.582 -175.5846
21.964572 63.579 -175.8304
22.123737 63.576 -176.0788
22.284054 63.573 -176.3287
22.445534 63.570 -176.5797
22.608183 63.567 -176.8310
22.772012 63.564 -177.0825
22.937027 63.561 -177.3337
23.103238 63.558 -177.5847
23.270654 63.555 -177.8354
23.439282 63.551 -178.0858
23.609133 63.548 -178.3360
23.780215 63.544 -178.5862
23.952536 63.540 -178.8365
24.126106 63.536 -179.0869
24.300934 63.532 -179.3376
24.477028 63.528 -179.5887
24.654399 63.523 -179.8400
24.833055 63.519 179.9085
25.013005 63.514 179.6570
25.194260 63.509 179.4055
25.376828 63.504 179.1545
25.560719 63.499 178.9042
25.745942 63.494 178.6548
25.932508 63.489 178.4066
26.120426 63.484 178.1599
26.309705 63.479 177.9149
26.500356 63.473 177.6714
26.692388 63.468 177.4296
26.885812 63.463 177.1893
27.080638 63.457 176.9502
27.276876 63.452 176.7120
27.474535 63.446 176.4744
27.673627 63.441 176.2371
27.874161 63.435 175.9997
28.076149 63.429 175.7620
28.279600 63.423 175.5239
28.484526 63.417 175.2851
28.690937 63.410 175.0457
28.898843 63.404 174.8058
29.108256 63.397 174.5653
29.319186 63.390 174.3243
29.531645 63.383 174.0830
29.745644 63.375 173.8414
29.961193 63.368 173.5997
30.178304 63.360 173.3578
30.396989 63.353 173.1159
30.617258 63.345 172.8742
30.839123 63.337 172.6328
31.062596 63.329 172.3918
31.287688 63.320 172.1513
31.514412 63.312 171.9116
31.742778 63.303 171.6725
31.972800 63.295 171.4341
32.204488 63.286 171.1964
32.437855 63.277 170.9594
32.672913 63.267 170.7228
32.909674 63.258 170.4866
33.148151 63.249 170.2507
33.388356 63.239 170.0151
33.630302 63.230 169.7798
33.874001 63.220 169.5448
34.119466 63.211 169.3101
34.366710 63.201 169.0757
34.615745 63.191 168.8416
34.866585 63.181 168.6079
35.119243 63.171 168.3745
35.373731 63.161 168.1414
35.630064 63.150 167.9084
35.888254 63.140 167.6756
36.148315 63.129 167.4429
36.410261 63.118 167.2101
36.674104 63.107 166.9773
36.939860 63.096 166.7444
37.207542 63.084 166.5115
37.477163 63.073 166.2785
37.748738 63.061 166.0455
38.022281 63.049 165.8127
38.297806 63.037 165.5800
38.575327 63.025 165.3474
38.854860 63.013 165.1151
39.136419 63.001 164.8828
39.420017 62.989 164.6507
39.705671 62.976 164.4186
39.993395 62.964 164.1864
40.283203 62.951 163.9542
40.575112 62.938 163.7217
40.869136 62.925 163.4893
41.165290 62.911 163.2567
41.463591 62.898 163.0241
41.764053 62.884 162.7916
42.066693 62.871 162.5591
42.371525 62.857 162.3268
42.678567 62.843 162.0947
42.987834 62.829 161.8627
43.299341 62.815 161.6309
43.613106 62.800 161.3992
43.929145 62.786 161.1676
44.247473 62.771 160.9362
44.568109 62.756 160.7047
44.891068 62.741 160.4733
45.216367 62.726 160.2419
45.544023 62.711 160.0104
45.874054 62.696 159.7790
46.206476 62.680 159.5476
46.541307 62.664 159.3162
46.878565 62.648 159.0848
47.218266 62.632 158.8534
47.560429 62.616 158.6221
47.905072 62.599 158.3909
48.252212 62.583 158.1599
48.601867 62.566 157.9294
48.954056 62.548 157.6993
49.308798 62.531 157.4700
49.666109 62.514 157.2415
50.026010 62.496 157.0138
50.388520 62.479 156.7868
50.753656 62.461 156.5603
51.121437 62.444 156.3341
51.491884 62.426 156.1080
51.865016 62.409 155.8818
52.240851 62.391 155.6551
52.619410 62.373 155.4279
53.000712 62.355 155.2001
53.384777 62.337 154.9719
53.771625 62.319 154.7434
54.161276 62.300 154.5147
54.553751 62.281 154.2861
54.949070 62.263 154.0576
55.347254 62.243 153.8292
55.748323 62.224 153.6011
56.152298 62.205 153.3732
56.559201 62.185 153.1454
56.969052 62.165 152.9178
57.381873 62.145 152.6903
57.797686 62.125 152.4631
58.216512 62.105 152.2360
58.638373 62.084 152.0092
59.063291 62.064 151.7825
59.491288 62.043 151.5561
59.922386 62.022 151.3297
60.356608 62.001 151.1033
60.793977 61.979 150.8768
61.234515 61.958 150.6502
61.678246 61.936 150.4235
62.125192 61.914 150.1968
62.575377 61.892 149.9702
63.028824 61.870 149.7437
63.485557 61.848 149.5175
63.945599 61.825 149.2916
64.408975 61.803 149.0660
64.875709 61.780 148.8409
65.345825 61.757 148.6162
65.819348 61.734 148.3922
66.296302 61.711 148.1686
66.776713 61.688 147.9455
67.260604 61.664 147.7227
67.748002 61.640 147.5003
68.238932 61.617 147.2781
68.733420 61.593 147.0561
69.231490 61.569 146.8342
69.733170 61.544 146.6124
70.238485 61.520 146.3906
70.747463 61.496 146.1690
71.260128 61.471 145.9475
71.776508 61.446 145.7260
72.296630 61.421 145.5047
72.820521 61.396 145.2835
73.348209 61.371 145.0625
73.879720 61.346 144.8417
74.415083 61.320 144.6213
74.954326 61.295 144.4013
75.497475 61.269 144.1816
76.044561 61.243 143.9623
76.595612 61.217 143.7434
77.150655 61.191 143.5248
77.709720 61.164 143.3065
78.272837 61.138 143.0885
78.840034 61.111 142.8707
79.411342 61.085 142.6531
79.986789 61.058 142.4357
80.566406 61.030 142.2184
81.150224 61.003 142.0013
81.738272 60.975 141.7843
82.330581 60.948 141.5674
82.927182 60.920 141.3507
83.528107 60.892 141.1343
84.133386 60.863 140.9183
84.743051 60.835 140.7029
85.357134 60.807 140.4883
85.975667 60.778 140.2745
86.598682 60.750 140.0616
87.226212 60.721 139.8496
87.858289 60.692 139.6383
88.494946 60.663 139.4276
89.136217 60.634 139.2173
89.782135 60.604 139.0074
90.432733 60.575 138.7979
91.088046 60.545 138.5887
91.748108 60.515 138.3800
92.412952 60.485 138.1718
93.082615 60.455 137.9642
93.757130 60.425 137.7573
94.436533 60.394 137.5511
95.120859 60.364 137.3456
95.810144 60.333 137.1407
96.504423 60.303 136.9366
97.203734 60.272 136.7330
97.908112 60.241 136.5300
98.617595 60.210 136.3275
99.332219 60.178 136.1255
100.052021 60.147 135.9238
100.777039 60.116 135.7223
101.507311 60.084 135.5210
102.242875 60.053 135.3200
102.983769 60.021 135.1193
103.730032 59.989 134.9191
104.481702 59.957 134.7193
105.238820 59.926 134.5200
106.001424 59.894 134.3212
106.769554 59.861 134.1229
107.543250 59.829 133.9249
108.322553 59.797 133.7271
109.107503 59.764 133.5294
109.898141 59.731 133.3319
110.694508 59.698 133.1347
111.496646 59.665 132.9380
112.304596 59.632 132.7420
113.118402 59.598 132.5468
113.938104 59.565 132.3523
114.763747 59.531 132.1588
115.595372 59.497 131.9661
116.433024 59.463 131.7744
117.276746 59.429 131.5838
118.126581 59.394 131.3945
118.982575 59.359 131.2068
119.844772 59.324 131.0211
120.713217 59.289 130.8374
121.587954 59.254 130.6560
122.469031 59.218 130.4769
123.356492 59.182 130.3000
124.250384 59.146 130.1255
125.150753 59.110 129.9532
126.057647 59.073 129.7836
126.971113 59.036 129.6166
127.891198 58.999 129.4527
128.817950 58.962 129.2921
129.751418 58.925 129.1354
130.691651 58.887 128.9829
131.638696 58.849 128.8352
132.592604 58.812 128.6928
133.553425 58.775 128.5562
134.521208 58.737 128.4261
135.496004 58.700 128.3028
136.477864 58.664 128.1869
137.466839 58.628 128.0788
138.462981 58.593 127.9787
139.466340 58.559 127.8866
140.476971 58.526 127.8022
141.494925 58.494 127.7248
142.520256 58.464 127.6533
143.553016 58.436 127.5863
144.593260 58.410 127.5219
145.641043 58.386 127.4577
146.696418 58.365 127.3913
147.759441 58.345 127.3199
148.830166 58.327 127.2408
149.908651 58.311 127.1518
150.994951 58.296 127.0507
152.089123 58.282 126.9364
153.191223 58.269 126.8081
154.301310 58.257 126.6656
155.419441 58.244 126.5087
156.545674 58.232 126.3378
157.680069 58.220 126.1535
158.822683 58.207 125.9564
159.973578 58.194 125.7476
161.132813 58.179 125.5283
162.300447 58.164 125.3000
163.476543 58.147 125.0641
164.661162 58.129 124.8224
165.854364 58.110 124.5764
167.056213 58.090 124.3277
168.266772 58.068 124.0776
169.486102 58.045 123.8273
170.714268 58.021 123.5779
171.951334 57.997 123.3300
173.197364 57.971 123.0842
174.452424 57.945 122.8412
175.716578 57.917 122.6011
176.989893 57.890 122.3639
178.272434 57.862 122.1296
179.564270 57.833 121.8981
180.865467 57.804 121.6695
182.176092 57.775 121.4437
183.496216 57.746 121.2206
184.825905 57.716 120.9998
186.165229 57.687 120.7810
187.514259 57.657 120.5639
188.873065 57.627 120.3489
190.241717 57.597 120.1363
191.620287 57.567 119.9258
193.008847 57.537 119.7168
194.407468 57.508 119.5086
195.816225 57.478 119.3011
197.235190 57.448 119.0945
198.664438 57.418 118.8895
200.104042 57.387 118.6865
201.554078 57.357 118.4856
203.014622 57.327 118.2867
204.485750 57.298 118.0894
205.967538 57.268 117.8932
207.460064 57.239 117.6977
208.963405 57.210 117.5026
210.477640 57.181 117.3078
212.002848 57.152 117.1133
213.539108 57.123 116.9189
215.086500 57.094 116.7250
216.645105 57.066 116.5314
218.215005 57.037 116.3382
219.796281 57.009 116.1456
221.389015 56.981 115.9534
222.993292 56.953 115.7617
224.609193 56.925 115.5706
226.236804 56.897 115.3799
227.876209 56.870 115.1898
229.527494 56.842 115.0001
231.190745 56.815 114.8110
232.866048 56.788 114.6225
234.553491 56.760 114.4345
236.253163 56.733 114.2471
237.965150 56.706 114.0602
239.689544 56.680 113.8737
241.426433 56.653 113.6879
243.175909 56.626 113.5027
244.938062 56.600 113.3180
246.712984 56.574 113.1340
248.500768 56.547 112.9507
250.301507 56.522 112.7681
252.115295 56.496 112.5861
253.942226 56.470 112.4046
255.782396 56.445 112.2236
257.635901 56.420 112.0430
259.502837 56.394 111.8628
261.383301 56.369 111.6829
263.277392 56.345 111.5035
265.185209 56.320 111.3247
267.106850 56.295 111.1468
269.042417 56.271 110.9699
270.992009 56.246 110.7943
272.955729 56.222 110.6204
274.933678 56.198 110.4484
276.925961 56.174 110.2786
278.932681 56.150 110.1114
280.953942 56.126 109.9471
282.989850 56.102 109.7861
285.040511 56.079 109.6288
287.106032 56.055 109.4756
289.186521 56.033 109.3268
291.282086 56.010 109.1828
293.392836 55.989 109.0439
295.518881 55.968 108.9102
297.660333 55.948 108.7816
299.817302 55.929 108.6578
301.989902 55.911 108.5382
304.178245 55.895 108.4218
306.382446 55.881 108.3076
308.602620 55.869 108.1937
310.838882 55.859 108.0783
313.091348 55.851 107.9591
315.360137 55.845 107.8337
317.645367 55.841 107.6995
319.947156 55.839 107.5541
322.265625 55.838 107.3956
324.600895 55.838 107.2225
326.953086 55.839 107.0340
329.322323 55.841 106.8301
331.708729 55.841 106.6115
334.112427 55.841 106.3797
336.533543 55.840 106.1364
338.972204 55.838 105.8838
341.428536 55.835 105.6242
343.902668 55.830 105.3598
346.394729 55.824 105.0927
348.904848 55.816 104.8249
351.433156 55.807 104.5577
353.979786 55.798 104.2923
356.544869 55.787 104.0297
359.128540 55.776 103.7704
361.730934 55.764 103.5148
364.352185 55.752 103.2629
366.992431 55.740 103.0147
369.651810 55.727 102.7702
372.330459 55.715 102.5290
375.028519 55.703 102.2910
377.746130 55.690 102.0557
380.483434 55.678 101.8230
383.240574 55.666 101.5925
386.017693 55.655 101.3641
388.814937 55.643 101.1375
391.632450 55.632 100.9124
394.470380 55.621 100.6888
397.328875 55.611 100.4664
400.208084 55.600 100.2451
403.108157 55.590 100.0249
406.029245 55.581 99.8055
408.971500 55.571 99.5869
411.935076 55.562 99.3689
414.920127 55.553 99.1516
417.926810 55.545 98.9348
420.955280 55.537 98.7185
424.005695 55.529 98.5028
427.078215 55.521 98.2877
430.173000 55.514 98.0730
433.290211 55.507 97.8588
436.430010 55.500 97.6450
439.592562 55.494 97.4316
442.778031 55.488 97.2187
445.986583 55.482 97.0061
449.218386 55.476 96.7939
452.473607 55.471 96.5820
455.752418 55.466 96.3706
459.054987 55.462 96.1596
462.381489 55.457 95.9491
465.732096 55.453 95.7391
469.106983 55.450 95.5297
472.506325 55.446 95.3208
475.930301 55.443 95.1126
479.379088 55.440 94.9050
482.852867 55.438 94.6979
486.351817 55.436 94.4913
489.876123 55.434 94.2851
493.425968 55.433 94.0792
497.001536 55.432 93.8735
500.603014 55.431 93.6680
504.230589 55.431 93.4627
507.884452 55.431 93.2575
511.564792 55.431 93.0525
515.271802 55.431 92.8477
519.005673 55.432 92.6432
522.766602 55.433 92.4391
526.554785 55.435 92.2356
530.370418 55.436 92.0327
534.213700 55.438 91.8305
538.084833 55.440 91.6291
541.984018 55.443 91.4285
545.911457 55.445 91.2289
549.867357 55.448 91.0302
553.851922 55.452 90.8323
557.865362 55.455 90.6353
561.907884 55.459 90.4392
565.979700 55.463 90.2440
570.081022 55.467 90.0495
574.212064 55.472 89.8558
578.373042 55.477 89.6627
582.564171 55.483 89.4702
586.785671 55.489 89.2781
591.037762 55.495 89.0864
595.320665 55.501 88.8951
599.634604 55.508 88.7041
603.979804 55.515 88.5135
608.356491 55.522 88.3234
612.764893 55.530 88.1339
617.205240 55.538 87.9453
621.677763 55.546 87.7576
626.182696 55.554 87.5712
630.720274 55.562 87.3862
635.290733 55.571 87.2028
639.894312 55.579 87.0213
644.531250 55.588 86.8417
649.201789 55.598 86.6644
653.906173 55.607 86.4894
658.644647 55.617 86.3170
663.417457 55.627 86.1471
668.224854 55.637 85.9799
673.067086 55.647 85.8156
677.944408 55.658 85.6541
682.857073 55.669 85.4955
687.805336 55.681 85.3399
692.789457 55.693 85.1873
697.809695 55.706 85.0377
702.866312 55.719 84.8912
707.959571 55.732 84.7478
713.089738 55.746 84.6075
718.257080 55.761 84.4702
723.461867 55.776 84.3359
728.704370 55.792 84.2046
733.984862 55.808 84.0764
739.303619 55.825 83.9512
744.660918 55.843 83.8289
750.057038 55.862 83.7097
755.492260 55.881 83.5934
760.966869 55.901 83.4800
766.481148 55.921 83.3697
772.035387 55.942 83.2622
777.629873 55.965 83.1577
783.264900 55.988 83.0561
788.940760 56.012 82.9573
794.657750 56.036 82.8613
800.416168 56.062 82.7681
806.216313 56.089 82.6775
812.058489 56.116 82.5893
817.943000 56.145 82.5034
823.870152 56.175 82.4197
829.840255 56.206 82.3380
835.853619 56.238 82.2581
841.910559 56.271 82.1797
848.011390 56.306 82.1027
854.156430 56.342 82.0268
860.346000 56.379 81.9518
866.580422 56.418 81.8773
872.860020 56.458 81.8030
879.185124 56.499 81.7286
885.556062 56.542 81.6537
891.973166 56.586 81.5778
898.436771 56.632 81.5007
904.947215 56.679 81.4218
911.504835 56.728 81.3408
918.109975 56.778 81.2572
924.762978 56.829 81.1705
931.464192 56.882 81.0803
938.213966 56.937 80.9861
945.012651 56.993 80.8873
951.860602 57.050 80.7836
958.758176 57.109 80.6743
965.705733 57.169 80.5589
972.703635 57.231 80.4370
979.752246 57.294 80.3080
986.851935 57.358 80.1714
994.003071 57.424 80.0267
1001.206027 57.491 79.8735
1008.461179 57.559 79.7114
1015.768904 57.628 79.5397
1023.129584 57.698 79.3582
1030.543603 57.769 79.1665
1038.011347 57.840 78.9643
1045.533205 57.913 78.7512
1053.109569 57.986 78.5270
1060.740836 58.060 78.2915
1068.427401 58.134 78.0446
1076.169666 58.208 77.7862
1083.968035 58.283 77.5162
1091.822915 58.358 77.2346
1099.734713 58.432 76.9414
1107.703844 58.507 76.6368
1115.730723 58.582 76.3207
1123.815768 58.657 75.9935
1131.959400 58.731 75.6553
1140.162045 58.805 75.3064
1148.424129 58.878 74.9470
1156.746083 58.951 74.5774
1165.128342 59.023 74.1979
1173.571343 59.095 73.8089
1182.075524 59.166 73.4107
1190.641331 59.236 73.0037
1199.269209 59.305 72.5883
1207.959608 59.374 72.1649
1216.712981 59.442 71.7340
1225.529785 59.508 71.2960
1234.410479 59.574 70.8512
1243.355526 59.639 70.4003
1252.365393 59.703 69.9436
1261.440549 59.766 69.4815
1270.581467 59.828 69.0146
1279.788624 59.889 68.5431
1289.062500 59.950 68.0674
1298.403578 60.009 67.5880
1307.812346 60.067 67.1050
1317.289293 60.125 66.6190
1326.834914 60.181 66.1299
1336.449707 60.237 65.6381
1346.134173 60.292 65.1439
1355.888816 60.346 64.6472
1365.714145 60.399 64.1483
1375.610673 60.451 63.6473
1385.578915 60.503 63.1443
1395.619391 60.554 62.6392
1405.732624 60.604 62.1322
1415.919142 60.654 61.6233
1426.179476 60.703 61.1125
1436.514160 60.752 60.5998
1446.923734 60.800 60.0853
1457.408740 60.848 59.5690
1467.969724 60.895 59.0507
1478.607238 60.942 58.5305
1489.321836 60.988 58.0081
1500.114076 61.033 57.4835
1510.984521 61.079 56.9565
1521.933737 61.123 56.4269
1532.962297 61.168 55.8946
1544.070773 61.211 55.3594
1555.259747 61.255 54.8211
1566.529800 61.297 54.2796
1577.881521 61.340 53.7347
1589.315501 61.381 53.1863
1600.832336 61.423 52.6343
1612.432627 61.463 52.0784
1624.116978 61.503 51.5185
1635.886000 61.542 50.9545
1647.740304 61.581 50.3862
1659.680509 61.619 49.8136
1671.707238 61.656 49.2366
1683.821118 61.693 48.6550
1696.022780 61.729 48.0688
1708.312860 61.763 47.4780
1720.692000 61.798 46.8826
1733.160843 61.831 46.2826
1745.720041 61.863 45.6781
1758.370248 61.894 45.0690
1771.112124 61.924 44.4555
1783.946332 61.954 43.8376
1796.873543 61.981 43.2153
1809.894429 62.008 42.5888
1823.009670 62.034 41.9582
1836.219950 62.058 41.3236
1849.525956 62.080 40.6852
1862.928384 62.101 40.0431
1876.427931 62.121 39.3975
1890.025301 62.139 38.7488
1903.721204 62.155 38.0971
1917.516352 62.170 37.4427
1931.411466 62.183 36.7861
1945.407270 62.194 36.1275
1959.504493 62.204 35.4675
1973.703870 62.212 34.8063
1988.006142 62.217 34.1446
2002.412054 62.221 33.4827
2016.922357 62.223 32.8213
2031.537808 62.223 32.1608
2046.259169 62.222 31.5019
2061.087206 62.218 30.8451
2076.022694 62.212 30.1910
2091.066410 62.204 29.5403
2106.219139 62.194 28.8935
2121.481671 62.182 28.2513
2136.854802 62.168 27.6142
2152.339333 62.152 26.9829
2167.936071 62.134 26.3582
2183.645829 62.114 25.7405
2199.469427 62.092 25.1304
2215.407689 62.068 24.5288
2231.461446 62.043 23.9361
2247.631536 62.015 23.3530
2263.918800 61.986 22.7800
2280.324089 61.956 22.2178
2296.848258 61.923 21.6667
2313.492167 61.889 21.1276
2330.256685 61.854 20.6007
2347.142685 61.817 20.0866
2364.151049 61.779 19.5857
2381.282662 61.740 19.0983
2398.538418 61.700 18.6248
2415.919216 61.659 18.1655
2433.425962 61.617 17.7208
2451.059570 61.575 17.2908
2468.820958 61.531 16.8757
2486.711052 61.488 16.4757
2504.730786 61.444 16.0910
2522.881098 61.399 15.7217
2541.162934 61.355 15.3678
2559.577248 61.310 15.0295
2578.125000 61.266 14.7067
2596.807157 61.221 14.3994
2615.624692 61.177 14.1075
2634.578586 61.134 13.8310
2653.669829 61.090 13.5696
2672.899414 61.048 13.3231
2692.268345 61.006 13.0912
2711.777632 60.965 12.8737
2731.428290 60.925 12.6702
2751.221345 60.886 12.4802
2771.157829 60.848 12.3035
2791.238781 60.812 12.1395
2811.465248 60.777 11.9877
2831.838284 60.743 11.8475
2852.358952 60.711 11.7185
2873.028321 60.681 11.6001
2893.847468 60.652 11.4916
2914.817480 60.625 11.3923
2935.939449 60.600 11.3017
2957.214476 60.577 11.2189
2978.643672 60.556 11.1433
3000.228152 60.537 11.0742
3021.969041 60.521 11.0106
3043.867475 60.506 10.9519
3065.924593 60.494 10.8972
3088.141547 60.484 10.8456
3110.519493 60.477 10.7961
3133.059600 60.472 10.7480
3155.763041 60.469 10.7003
3178.631001 60.469 10.6516
3201.664672 60.471 10.6012
3224.865254 60.476 10.5477
3248.233957 60.484 10.4900
3271.771999 60.494 10.4266
3295.480608 60.506 10.3564
3319.361019 60.521 10.2777
3343.414477 60.539 10.1891
3367.642236 60.559 10.0888
3392.045560 60.582 9.9753
3416.625721 60.607 9.8467
3441.383999 60.634 9.7013
3466.321686 60.663 9.5372
3491.440082 60.694 9.3526
3516.740496 60.727 9.1458
3542.224247 60.760 8.9149
3567.892664 60.795 8.6585
3593.747085 60.831 8.3750
3619.788858 60.867 8.0632
3646.019340 60.903 7.7221
3672.439900 60.938 7.3508
3699.051913 60.972 6.9489
3725.856768 61.004 6.5161
3752.855862 61.034 6.0526
3780.050603 61.062 5.5588
3807.442408 61.087 5.0354
3835.032705 61.108 4.4834
3862.822933 61.125 3.9041
3890.814540 61.137 3.2991
3919.008986 61.145 2.6703
3947.407741 61.147 2.0199
3976.012284 61.142 1.3502
4004.824108 61.132 0.6641
4033.844715 61.114 -0.0354
4063.075616 61.089 -0.7448
4092.518337 61.056 -1.4601
4122.174412 61.015 -2.1769
4152.045387 60.966 -2.8906
4182.132820 60.908 -3.5957
4212.438278 60.841 -4.2865
4242.963342 60.765 -4.9568
4273.709604 60.680 -5.6003
4304.678665 60.586 -6.2100
4335.872141 60.484 -6.7789
4367.291658 60.373 -7.3000
4398.938854 60.255 -7.7660
4430.815378 60.129 -8.1699
4462.922893 59.997 -8.5048
4495.263072 59.859 -8.7639
4527.837601 59.717 -8.9409
4560.648179 59.571 -9.0297
4593.696515 59.424 -9.0250
4626.984334 59.276 -8.9220
4660.513370 59.129 -8.7167
4694.285371 58.985 -8.4061
4728.302098 58.846 -7.9884
4762.565324 58.714 -7.4635
4797.076835 58.592 -6.8329
4831.838432 58.483 -6.1003
4866.851925 58.387 -5.2723
4902.119140 58.310 -4.3583
4937.641916 58.252 -3.3707
4973.422105 58.216 -2.3259
5009.461572 58.204 -1.2440
5045.762195 58.219 -0.1485
5082.325868 58.261 0.9336
5119.154496 58.330 1.9728
5156.250000 58.426 2.9377
5193.614313 58.548 3.7966
5231.249383 58.692 4.5185
5269.157173 58.856 5.0752
5307.339658 59.035 5.4423
5345.798829 59.224 5.6007
5384.536691 59.416 5.5380
5423.555263 59.607 5.2488
5462.856580 59.788 4.7355
5502.442691 59.956 4.0082
5542.315659 60.102 3.0847
5582.477563 60.224 1.9897
5622.930497 60.315 0.7546
5663.676569 60.372 -0.5846
5704.717904 60.394 -1.9879
5746.056642 60.378 -3.4130
5787.694937 60.325 -4.8170
5829.634960 60.237 -6.1586
5871.878898 60.115 -7.3987
5914.428953 59.963 -8.5024
5957.287343 59.785 -9.4398
6000.456303 59.585 -10.1863
6043.938083 59.370 -10.7238
6087.734950 59.143 -11.0399
6131.849187 58.912 -11.1287
6176.283094 58.682 -10.9899
6221.038987 58.457 -10.6291
6266.119200 58.244 -10.0566
6311.526083 58.046 -9.2877
6357.262002 57.869 -8.3413
6403.329344 57.716 -7.2399
6449.730508 57.589 -6.0082
6496.467914 57.492 -4.6734
6543.543998 57.427 -3.2637
6590.961215 57.394 -1.8082
6638.722037 57.395 -0.3361
6686.828954 57.429 1.1239
6735.284473 57.497 2.5432
6784.091120 57.597 3.8945
6833.251441 57.727 5.1517
6882.767998 57.886 6.2898
6932.643372 58.072 7.2855
6982.880164 58.282 8.1172
7033.480992 58.512 8.7653
7084.448495 58.759 9.2122
7135.785329 59.019 9.4429
7187.494171 59.288 9.4453
7239.577717 59.561 9.2101
7292.038681 59.833 8.7319
7344.879799 60.100 8.0088
7398.103826 60.355 7.0435
7451.713536 60.595 5.8429
7505.711724 60.814 4.4189
7560.101205 61.007 2.7885
7614.884815 61.170 0.9731
7670.065409 61.298 -1.0007
7725.645865 61.388 -3.1022
7781.629080 61.438 -5.2970
7838.017972 61.445 -7.5480
7894.815481 61.410 -9.8169
7952.024569 61.331 -12.0649
8009.648217 61.211 -14.2550
8067.689429 61.051 -16.3524
8126.151233 60.854 -18.3263
8185.036674 60.623 -20.1501
8244.348824 60.363 -21.8022
8304.090774 60.078 -23.2664
8364.265639 59.773 -24.5313
8424.876556 59.451 -25.5909
8485.926684 59.118 -26.4438
8547.419207 58.777 -27.0933
8609.357330 58.433 -27.5459
8671.744282 58.089 -27.8121
8734.583316 57.749 -27.9048
8797.877707 57.414 -27.8387
8861.630756 57.088 -27.6299
8925.845785 56.771 -27.2942
8990.526143 56.464 -26.8470
9055.675202 56.169 -26.3022
9121.296357 55.883 -25.6717
9187.393031 55.608 -24.9644
9253.968668 55.343 -24.1864
9321.026740 55.086 -23.3406
9388.570742 54.837 -22.4266
9456.604196 54.596 -21.4417
9525.130648 54.361 -20.3807
9594.153671 54.135 -19.2375
9663.676863 53.916 -18.0058
9733.703850 53.706 -16.6801
9804.238280 53.507 -15.2573
9875.283832 53.321 -13.7374
9946.844210 53.150 -12.1248
10018.923143 52.997 -10.4289
10091.524390 52.864 -8.6639
10164.651736 52.752 -6.8490
10238.308993 52.665 -5.0074
10312.500000 52.603 -3.1654
10387.228626 52.565 -1.3508
10462.498767 52.553 0.4084
10538.314345 52.565 2.0856
10614.679315 52.598 3.6566
10691.597657 52.651 5.1011
10769.073381 52.721 6.4025
10847.110526 52.804 7.5492
10925.713161 52.898 8.5339
11004.885382 52.999 9.3531
11084.631318 53.104 10.0072
11164.955126 53.211 10.4984
11245.860993 53.316 10.8308
11327.353138 53.418 11.0090
11409.435808 53.513 11.0383
11492.113283 53.601 10.9248
11575.389873 53.677 10.6760
11659.269920 53.741 10.3011
11743.757796 53.790 9.8118
11828.857906 53.822 9.2211
11914.574686 53.834 8.5442
12000.912606 53.827 7.7977
12087.876166 53.797 6.9997
12175.469900 53.745 6.1699
12263.698373 53.669 5.3295
12352.566187 53.568 4.5021
12442.077974 53.442 3.7129
12532.238400 53.292 2.9896
12623.052165 53.119 2.3604
12714.524005 52.924 1.8531
12806.658687 52.712 1.4927
12899.461015 52.486 1.2977
12992.935827 52.252 1.2772
13087.087996 52.016 1.4272
13181.922430 51.783 1.7303
13277.444074 51.559 2.1561
13373.657907 51.348 2.6652
13470.568945 51.150 3.2158
13568.182241 50.966 3.7706
13666.502883 50.792 4.3022
13765.535996 50.624 4.7975
13865.286744 50.459 5.2571
13965.760328 50.294 5.6940
14066.961984 50.125 6.1289
14168.896989 49.952 6.5858
14271.570658 49.776 7.0868
14374.988342 49.598 7.6478
14479.155433 49.423 8.2756
14584.077362 49.253 8.9656
14689.759598 49.094 9.7017
14796.207652 48.949 10.4567
14903.427072 48.819 11.1960
15011.423448 48.707 11.8809
15120.202410 48.611 12.4733
15229.769630 48.530 12.9404
15340.130819 48.460 13.2581
15451.291730 48.398 13.4116
15563.258160 48.339 13.3962
15676.035944 48.281 13.2135
15789.630962 48.222 12.8680
15904.049137 48.159 12.3638
16019.296433 48.093 11.7011
16135.378859 48.022 10.8755
16252.302465 47.945 9.8783
16370.073348 47.861 8.6993
16488.697648 47.767 7.3292
16608.181548 47.656 5.7634
16728.531278 47.526 4.0050
16849.753112 47.368 2.0667
16971.853368 47.177 -0.0283
17094.838414 46.948 -2.2467
17218.714660 46.676 -4.5472
17343.488565 46.359 -6.8839
17469.166632 45.993 -9.2086
17595.755415 45.580 -11.4738
17723.261512 45.119 -13.6328
17851.691571 44.612 -15.6389
17981.052287 44.060 -17.4429
18111.350404 43.464 -18.9917
18242.592715 42.826 -20.2297
18374.786062 42.150 -21.1017
18507.937336 41.440 -21.5562
18642.053479 40.701 -21.5505
18777.141484 39.941 -21.0562
18913.208391 39.170 -20.0659
19050.261296 38.398 -18.6022
19188.307342 37.641 -16.7278
19327.353727 36.916 -14.5538
19467.407699 36.246 -12.2423
19608.476560 35.657 -9.9977
19750.567664 35.178 -8.0458
19893.688419 34.838 -6.6014
20037.846286 34.661 -5.8329
