* Measurement data measured by REW V5.20.9
* Source: Input device not selected, no input selected, R, volume: no control
* Format: 256k Log Swept Sine, 1 sweep at -12,0 dBFS with no timing reference
* Dated: 29.08.2022 12:30:56
* REW Settings:
*  C-weighting compensation: Off
*  Target level: 75.0 dB
* Note: 
* Measurement: KZ AS12 X RIO
* Smoothing: 1/3 octave
* Frequency Step: 96 ppo
* Start Frequency: 20.141602 Hz
*
* Freq(Hz) SPL(dB) Phase(degrees)
20.141602 64.591 -154.0903
20.287556 64.596 -154.1965
20.434568 64.602 -154.3237
20.582645 64.609 -154.4707
20.731796 64.616 -154.6361
20.882027 64.624 -154.8185
21.033346 64.633 -155.0162
21.185763 64.641 -155.2280
21.339284 64.650 -155.4525
21.493917 64.660 -155.6883
21.649671 64.669 -155.9344
21.806553 64.678 -156.1898
21.964572 64.688 -156.4537
22.123737 64.697 -156.7252
22.284054 64.706 -157.0037
22.445534 64.715 -157.2886
22.608183 64.723 -157.5795
22.772012 64.732 -157.8758
22.937027 64.740 -158.1769
23.103238 64.747 -158.4825
23.270654 64.755 -158.7919
23.439282 64.761 -159.1046
23.609133 64.768 -159.4201
23.780215 64.774 -159.7377
23.952536 64.780 -160.0569
24.126106 64.786 -160.3772
24.300934 64.792 -160.6981
24.477028 64.797 -161.0191
24.654399 64.802 -161.3398
24.833055 64.807 -161.6601
25.013005 64.812 -161.9795
25.194260 64.817 -162.2980
25.376828 64.822 -162.6155
25.560719 64.827 -162.9319
25.745942 64.832 -163.2472
25.932508 64.837 -163.5614
26.120426 64.842 -163.8745
26.309705 64.847 -164.1866
26.500356 64.852 -164.4978
26.692388 64.856 -164.8080
26.885812 64.861 -165.1175
27.080638 64.865 -165.4261
27.276876 64.869 -165.7339
27.474535 64.873 -166.0410
27.673627 64.876 -166.3474
27.874161 64.880 -166.6531
28.076149 64.883 -166.9581
28.279600 64.887 -167.2623
28.484526 64.890 -167.5657
28.690937 64.893 -167.8683
28.898843 64.896 -168.1700
29.108256 64.898 -168.4707
29.319186 64.901 -168.7704
29.531645 64.904 -169.0692
29.745644 64.906 -169.3669
29.961193 64.909 -169.6636
30.178304 64.911 -169.9594
30.396989 64.913 -170.2543
30.617258 64.916 -170.5485
30.839123 64.918 -170.8422
31.062596 64.920 -171.1354
31.287688 64.922 -171.4283
31.514412 64.924 -171.7211
31.742778 64.926 -172.0139
31.972800 64.928 -172.3068
32.204488 64.929 -172.6000
32.437855 64.931 -172.8936
32.672913 64.933 -173.1875
32.909674 64.935 -173.4821
33.148151 64.936 -173.7773
33.388356 64.938 -174.0733
33.630302 64.940 -174.3701
33.874001 64.942 -174.6677
34.119466 64.943 -174.9663
34.366710 64.945 -175.2659
34.615745 64.947 -175.5663
34.866585 64.948 -175.8677
35.119243 64.950 -176.1699
35.373731 64.951 -176.4728
35.630064 64.952 -176.7763
35.888254 64.953 -177.0801
36.148315 64.954 -177.3843
36.410261 64.954 -177.6885
36.674104 64.954 -177.9926
36.939860 64.954 -178.2966
37.207542 64.953 -178.6001
37.477163 64.953 -178.9032
37.748738 64.952 -179.2058
38.022281 64.950 -179.5077
38.297806 64.949 -179.8091
38.575327 64.947 179.8903
38.854860 64.945 179.5902
39.136419 64.942 179.2908
39.420017 64.940 178.9921
39.705671 64.937 178.6939
39.993395 64.934 178.3963
40.283203 64.931 178.0993
40.575112 64.928 177.8028
40.869136 64.924 177.5068
41.165290 64.921 177.2114
41.463591 64.917 176.9164
41.764053 64.913 176.6219
42.066693 64.909 176.3280
42.371525 64.904 176.0345
42.678567 64.900 175.7415
42.987834 64.895 175.4489
43.299341 64.891 175.1567
43.613106 64.886 174.8649
43.929145 64.881 174.5734
44.247473 64.875 174.2821
44.568109 64.870 173.9911
44.891068 64.864 173.7003
45.216367 64.858 173.4098
45.544023 64.852 173.1194
45.874054 64.846 172.8291
46.206476 64.840 172.5390
46.541307 64.833 172.2491
46.878565 64.827 171.9593
47.218266 64.820 171.6696
47.560429 64.813 171.3801
47.905072 64.806 171.0907
48.252212 64.798 170.8015
48.601867 64.791 170.5125
48.954056 64.783 170.2237
49.308798 64.775 169.9352
49.666109 64.768 169.6469
50.026010 64.760 169.3588
50.388520 64.751 169.0710
50.753656 64.743 168.7834
51.121437 64.735 168.4962
51.491884 64.726 168.2092
51.865016 64.717 167.9224
52.240851 64.709 167.6357
52.619410 64.700 167.3492
53.000712 64.690 167.0629
53.384777 64.681 166.7767
53.771625 64.672 166.4905
54.161276 64.662 166.2043
54.553751 64.653 165.9181
54.949070 64.643 165.6318
55.347254 64.633 165.3454
55.748323 64.623 165.0588
56.152298 64.613 164.7721
56.559201 64.603 164.4850
56.969052 64.592 164.1977
57.381873 64.582 163.9100
57.797686 64.571 163.6219
58.216512 64.560 163.3333
58.638373 64.550 163.0443
59.063291 64.539 162.7547
59.491288 64.528 162.4646
59.922386 64.516 162.1739
60.356608 64.505 161.8826
60.793977 64.493 161.5907
61.234515 64.481 161.2983
61.678246 64.469 161.0052
62.125192 64.457 160.7118
62.575377 64.444 160.4178
63.028824 64.432 160.1233
63.485557 64.419 159.8284
63.945599 64.405 159.5332
64.408975 64.392 159.2377
64.875709 64.378 158.9420
65.345825 64.364 158.6461
65.819348 64.350 158.3500
66.296302 64.335 158.0540
66.776713 64.320 157.7580
67.260604 64.305 157.4621
67.748002 64.290 157.1664
68.238932 64.275 156.8709
68.733420 64.259 156.5757
69.231490 64.243 156.2807
69.733170 64.226 155.9860
70.238485 64.210 155.6917
70.747463 64.193 155.3977
71.260128 64.176 155.1040
71.776508 64.159 154.8106
72.296630 64.141 154.5175
72.820521 64.123 154.2247
73.348209 64.105 153.9322
73.879720 64.086 153.6399
74.415083 64.068 153.3480
74.954326 64.049 153.0563
75.497475 64.029 152.7650
76.044561 64.009 152.4739
76.595612 63.989 152.1832
77.150655 63.969 151.8929
77.709720 63.948 151.6031
78.272837 63.927 151.3137
78.840034 63.906 151.0248
79.411342 63.885 150.7364
79.986789 63.863 150.4485
80.566406 63.841 150.1614
81.150224 63.818 149.8748
81.738272 63.795 149.5891
82.330581 63.772 149.3040
82.927182 63.749 149.0199
83.528107 63.725 148.7366
84.133386 63.701 148.4544
84.743051 63.677 148.1732
85.357134 63.653 147.8932
85.975667 63.628 147.6145
86.598682 63.603 147.3372
87.226212 63.578 147.0614
87.858289 63.552 146.7872
88.494946 63.526 146.5148
89.136217 63.500 146.2443
89.782135 63.474 145.9758
90.432733 63.448 145.7094
91.088046 63.421 145.4453
91.748108 63.395 145.1834
92.412952 63.368 144.9240
93.082615 63.341 144.6669
93.757130 63.314 144.4124
94.436533 63.288 144.1604
95.120859 63.261 143.9110
95.810144 63.234 143.6642
96.504423 63.207 143.4200
97.203734 63.181 143.1784
97.908112 63.155 142.9394
98.617595 63.128 142.7030
99.332219 63.103 142.4692
100.052021 63.077 142.2379
100.777039 63.052 142.0091
101.507311 63.028 141.7827
102.242875 63.003 141.5583
102.983769 62.980 141.3360
103.730032 62.957 141.1154
104.481702 62.934 140.8961
105.238820 62.912 140.6779
106.001424 62.891 140.4601
106.769554 62.871 140.2423
107.543250 62.851 140.0238
108.322553 62.833 139.8040
109.107503 62.815 139.5821
109.898141 62.798 139.3573
110.694508 62.781 139.1288
111.496646 62.766 138.8959
112.304596 62.751 138.6578
113.118402 62.737 138.4138
113.938104 62.724 138.1632
114.763747 62.711 137.9055
115.595372 62.698 137.6403
116.433024 62.686 137.3672
117.276746 62.673 137.0860
118.126581 62.661 136.7968
118.982575 62.648 136.4995
119.844772 62.635 136.1942
120.713217 62.621 135.8814
121.587954 62.607 135.5613
122.469031 62.592 135.2343
123.356492 62.577 134.9009
124.250384 62.560 134.5617
125.150753 62.542 134.2173
126.057647 62.524 133.8682
126.971113 62.504 133.5150
127.891198 62.483 133.1584
128.817950 62.461 132.7989
129.751418 62.438 132.4373
130.691651 62.414 132.0739
131.638696 62.388 131.7096
132.592604 62.362 131.3447
133.553425 62.334 130.9798
134.521208 62.305 130.6153
135.496004 62.275 130.2517
136.477864 62.245 129.8895
137.466839 62.213 129.5288
138.462981 62.180 129.1701
139.466340 62.146 128.8137
140.476971 62.112 128.4597
141.494925 62.077 128.1085
142.520256 62.041 127.7600
143.553016 62.004 127.4146
144.593260 61.967 127.0721
145.641043 61.929 126.7327
146.696418 61.891 126.3964
147.759441 61.852 126.0632
148.830166 61.813 125.7331
149.908651 61.773 125.4060
150.994951 61.733 125.0819
152.089123 61.693 124.7607
153.191223 61.653 124.4424
154.301310 61.612 124.1270
155.419441 61.571 123.8143
156.545674 61.529 123.5043
157.680069 61.488 123.1970
158.822683 61.446 122.8923
159.973578 61.405 122.5901
161.132813 61.363 122.2903
162.300447 61.321 121.9928
163.476543 61.279 121.6976
164.661162 61.237 121.4046
165.854364 61.195 121.1137
167.056213 61.153 120.8247
168.266772 61.111 120.5376
169.486102 61.069 120.2523
170.714268 61.027 119.9685
171.951334 60.985 119.6863
173.197364 60.943 119.4055
174.452424 60.901 119.1259
175.716578 60.859 118.8474
176.989893 60.817 118.5699
178.272434 60.775 118.2933
179.564270 60.732 118.0174
180.865467 60.690 117.7421
182.176092 60.648 117.4674
183.496216 60.606 117.1931
184.825905 60.564 116.9193
186.165229 60.522 116.6458
187.514259 60.479 116.3727
188.873065 60.437 116.1000
190.241717 60.394 115.8276
191.620287 60.352 115.5556
193.008847 60.309 115.2842
194.407468 60.266 115.0133
195.816225 60.222 114.7431
197.235190 60.179 114.4737
198.664438 60.135 114.2053
200.104042 60.091 113.9380
201.554078 60.046 113.6719
203.014622 60.002 113.4073
204.485750 59.957 113.1442
205.967538 59.912 112.8830
207.460064 59.866 112.6237
208.963405 59.821 112.3665
210.477640 59.775 112.1116
212.002848 59.729 111.8592
213.539108 59.683 111.6095
215.086500 59.636 111.3626
216.645105 59.589 111.1187
218.215005 59.543 110.8779
219.796281 59.496 110.6405
221.389015 59.449 110.4064
222.993292 59.402 110.1759
224.609193 59.355 109.9489
226.236804 59.308 109.7256
227.876209 59.262 109.5060
229.527494 59.215 109.2900
231.190745 59.169 109.0775
232.866048 59.123 108.8684
234.553491 59.077 108.6625
236.253163 59.032 108.4596
237.965150 58.988 108.2592
239.689544 58.944 108.0611
241.426433 58.900 107.8647
243.175909 58.857 107.6696
244.938062 58.815 107.4750
246.712984 58.774 107.2805
248.500768 58.733 107.0854
250.301507 58.693 106.8890
252.115295 58.654 106.6908
253.942226 58.615 106.4901
255.782396 58.576 106.2866
257.635901 58.538 106.0798
259.502837 58.500 105.8696
261.383301 58.463 105.6558
263.277392 58.425 105.4384
265.185209 58.387 105.2177
267.106850 58.349 104.9940
269.042417 58.311 104.7675
270.992009 58.273 104.5389
272.955729 58.234 104.3087
274.933678 58.194 104.0775
276.925961 58.155 103.8457
278.932681 58.114 103.6140
280.953942 58.073 103.3830
282.989850 58.032 103.1531
285.040511 57.990 102.9247
287.106032 57.948 102.6984
289.186521 57.905 102.4744
291.282086 57.862 102.2531
293.392836 57.819 102.0346
295.518881 57.775 101.8193
297.660333 57.731 101.6072
299.817302 57.687 101.3984
301.989902 57.643 101.1931
304.178245 57.598 100.9914
306.382446 57.554 100.7931
308.602620 57.510 100.5983
310.838882 57.465 100.4070
313.091348 57.421 100.2192
315.360137 57.377 100.0349
317.645367 57.333 99.8538
319.947156 57.289 99.6761
322.265625 57.245 99.5017
324.600895 57.202 99.3304
326.953086 57.159 99.1623
329.322323 57.116 98.9973
331.708729 57.073 98.8352
334.112427 57.030 98.6762
336.533543 56.988 98.5200
338.972204 56.946 98.3667
341.428536 56.904 98.2162
343.902668 56.862 98.0685
346.394729 56.821 97.9236
348.904848 56.780 97.7813
351.433156 56.740 97.6417
353.979786 56.699 97.5047
356.544869 56.660 97.3703
359.128540 56.620 97.2386
361.730934 56.581 97.1094
364.352185 56.542 96.9828
366.992431 56.504 96.8587
369.651810 56.466 96.7372
372.330459 56.428 96.6182
375.028519 56.391 96.5016
377.746130 56.354 96.3876
380.483434 56.317 96.2761
383.240574 56.281 96.1671
386.017693 56.245 96.0605
388.814937 56.210 95.9563
391.632450 56.175 95.8547
394.470380 56.141 95.7554
397.328875 56.107 95.6587
400.208084 56.074 95.5643
403.108157 56.041 95.4724
406.029245 56.008 95.3829
408.971500 55.976 95.2959
411.935076 55.945 95.2112
414.920127 55.914 95.1289
417.926810 55.883 95.0490
420.955280 55.853 94.9715
424.005695 55.824 94.8964
427.078215 55.795 94.8237
430.173000 55.766 94.7533
433.290211 55.739 94.6853
436.430010 55.711 94.6196
439.592562 55.685 94.5563
442.778031 55.658 94.4953
445.986583 55.633 94.4366
449.218386 55.608 94.3802
452.473607 55.584 94.3260
455.752418 55.560 94.2742
459.054987 55.537 94.2247
462.381489 55.515 94.1773
465.732096 55.493 94.1323
469.106983 55.472 94.0894
472.506325 55.451 94.0488
475.930301 55.431 94.0103
479.379088 55.412 93.9741
482.852867 55.394 93.9400
486.351817 55.376 93.9081
489.876123 55.359 93.8783
493.425968 55.343 93.8506
497.001536 55.327 93.8250
500.603014 55.312 93.8015
504.230589 55.298 93.7799
507.884452 55.284 93.7604
511.564792 55.272 93.7429
515.271802 55.260 93.7273
519.005673 55.249 93.7137
522.766602 55.238 93.7019
526.554785 55.229 93.6920
530.370418 55.220 93.6838
534.213700 55.212 93.6775
538.084833 55.205 93.6729
541.984018 55.198 93.6700
545.911457 55.193 93.6688
549.867357 55.188 93.6693
553.851922 55.184 93.6713
557.865362 55.181 93.6749
561.907884 55.179 93.6800
565.979700 55.178 93.6866
570.081022 55.177 93.6947
574.212064 55.178 93.7043
578.373042 55.179 93.7151
582.564171 55.181 93.7274
586.785671 55.185 93.7411
591.037762 55.189 93.7560
595.320665 55.194 93.7722
599.634604 55.200 93.7896
603.979804 55.206 93.8083
608.356491 55.214 93.8281
612.764893 55.223 93.8491
617.205240 55.233 93.8711
621.677763 55.243 93.8943
626.182696 55.255 93.9184
630.720274 55.268 93.9436
635.290733 55.281 93.9698
639.894312 55.296 93.9968
644.531250 55.312 94.0248
649.201789 55.329 94.0536
653.906173 55.346 94.0831
658.644647 55.365 94.1135
663.417457 55.385 94.1445
668.224854 55.406 94.1761
673.067086 55.428 94.2084
677.944408 55.451 94.2412
682.857073 55.475 94.2744
687.805336 55.500 94.3081
692.789457 55.527 94.3422
697.809695 55.554 94.3765
702.866312 55.583 94.4110
707.959571 55.613 94.4457
713.089738 55.644 94.4804
718.257080 55.676 94.5151
723.461867 55.710 94.5497
728.704370 55.744 94.5842
733.984862 55.780 94.6183
739.303619 55.817 94.6520
744.660918 55.856 94.6852
750.057038 55.895 94.7178
755.492260 55.936 94.7496
760.966869 55.979 94.7805
766.481148 56.022 94.8104
772.035387 56.067 94.8391
777.629873 56.113 94.8664
783.264900 56.161 94.8921
788.940760 56.210 94.9161
794.657750 56.260 94.9382
800.416168 56.312 94.9581
806.216313 56.365 94.9757
812.058489 56.420 94.9907
817.943000 56.476 95.0029
823.870152 56.533 95.0120
829.840255 56.592 95.0178
835.853619 56.652 95.0199
841.910559 56.714 95.0182
848.011390 56.777 95.0122
854.156430 56.842 95.0017
860.346000 56.908 94.9864
866.580422 56.976 94.9659
872.860020 57.044 94.9399
879.185124 57.115 94.9081
885.556062 57.187 94.8701
891.973166 57.260 94.8255
898.436771 57.334 94.7740
904.947215 57.410 94.7153
911.504835 57.487 94.6489
918.109975 57.565 94.5745
924.762978 57.645 94.4918
931.464192 57.725 94.4003
938.213966 57.807 94.2997
945.012651 57.890 94.1898
951.860602 57.974 94.0702
958.758176 58.059 93.9405
965.705733 58.144 93.8005
972.703635 58.231 93.6500
979.752246 58.318 93.4886
986.851935 58.406 93.3160
994.003071 58.495 93.1323
1001.206027 58.584 92.9370
1008.461179 58.674 92.7302
1015.768904 58.764 92.5116
1023.129584 58.854 92.2812
1030.543603 58.944 92.0388
1038.011347 59.035 91.7846
1045.533205 59.125 91.5184
1053.109569 59.216 91.2404
1060.740836 59.306 90.9505
1068.427401 59.396 90.6489
1076.169666 59.486 90.3358
1083.968035 59.576 90.0112
1091.822915 59.665 89.6754
1099.734713 59.753 89.3286
1107.703844 59.841 88.9711
1115.730723 59.928 88.6032
1123.815768 60.015 88.2251
1131.959400 60.100 87.8373
1140.162045 60.185 87.4399
1148.424129 60.269 87.0336
1156.746083 60.352 86.6185
1165.128342 60.434 86.1952
1173.571343 60.515 85.7641
1182.075524 60.595 85.3255
1190.641331 60.674 84.8799
1199.269209 60.751 84.4278
1207.959608 60.828 83.9696
1216.712981 60.903 83.5057
1225.529785 60.977 83.0367
1234.410479 61.050 82.5628
1243.355526 61.122 82.0847
1252.365393 61.193 81.6027
1261.440549 61.263 81.1172
1270.581467 61.331 80.6286
1279.788624 61.399 80.1374
1289.062500 61.465 79.6439
1298.403578 61.530 79.1485
1307.812346 61.595 78.6515
1317.289293 61.658 78.1533
1326.834914 61.720 77.6541
1336.449707 61.782 77.1544
1346.134173 61.843 76.6542
1355.888816 61.902 76.1539
1365.714145 61.961 75.6537
1375.610673 62.020 75.1537
1385.578915 62.077 74.6542
1395.619391 62.134 74.1553
1405.732624 62.191 73.6571
1415.919142 62.247 73.1597
1426.179476 62.302 72.6631
1436.514160 62.358 72.1675
1446.923734 62.412 71.6727
1457.408740 62.467 71.1788
1467.969724 62.521 70.6857
1478.607238 62.575 70.1934
1489.321836 62.629 69.7018
1500.114076 62.683 69.2107
1510.984521 62.737 68.7199
1521.933737 62.791 68.2294
1532.962297 62.844 67.7389
1544.070773 62.898 67.2481
1555.259747 62.953 66.7569
1566.529800 63.007 66.2649
1577.881521 63.062 65.7719
1589.315501 63.116 65.2775
1600.832336 63.171 64.7814
1612.432627 63.227 64.2833
1624.116978 63.283 63.7827
1635.886000 63.339 63.2793
1647.740304 63.395 62.7727
1659.680509 63.452 62.2624
1671.707238 63.509 61.7480
1683.821118 63.567 61.2290
1696.022780 63.625 60.7050
1708.312860 63.683 60.1754
1720.692000 63.742 59.6398
1733.160843 63.801 59.0977
1745.720041 63.860 58.5485
1758.370248 63.920 57.9918
1771.112124 63.980 57.4270
1783.946332 64.040 56.8537
1796.873543 64.100 56.2714
1809.894429 64.160 55.6794
1823.009670 64.221 55.0775
1836.219950 64.281 54.4651
1849.525956 64.341 53.8417
1862.928384 64.401 53.2069
1876.427931 64.461 52.5603
1890.025301 64.520 51.9015
1903.721204 64.579 51.2302
1917.516352 64.637 50.5460
1931.411466 64.694 49.8486
1945.407270 64.751 49.1379
1959.504493 64.806 48.4136
1973.703870 64.861 47.6754
1988.006142 64.914 46.9235
2002.412054 64.967 46.1576
2016.922357 65.017 45.3777
2031.537808 65.066 44.5840
2046.259169 65.113 43.7764
2061.087206 65.159 42.9552
2076.022694 65.202 42.1206
2091.066410 65.243 41.2730
2106.219139 65.282 40.4125
2121.481671 65.318 39.5398
2136.854802 65.352 38.6552
2152.339333 65.383 37.7594
2167.936071 65.411 36.8529
2183.645829 65.436 35.9365
2199.469427 65.458 35.0108
2215.407689 65.477 34.0768
2231.461446 65.492 33.1353
2247.631536 65.504 32.1872
2263.918800 65.512 31.2336
2280.324089 65.517 30.2755
2296.848258 65.518 29.3140
2313.492167 65.515 28.3503
2330.256685 65.509 27.3856
2347.142685 65.498 26.4213
2364.151049 65.483 25.4584
2381.282662 65.465 24.4984
2398.538418 65.442 23.5427
2415.919216 65.416 22.5927
2433.425962 65.385 21.6496
2451.059570 65.350 20.7151
2468.820958 65.312 19.7904
2486.711052 65.269 18.8771
2504.730786 65.223 17.9766
2522.881098 65.172 17.0903
2541.162934 65.118 16.2197
2559.577248 65.060 15.3662
2578.125000 64.999 14.5312
2596.807157 64.934 13.7161
2615.624692 64.866 12.9223
2634.578586 64.794 12.1511
2653.669829 64.719 11.4041
2672.899414 64.641 10.6823
2692.268345 64.561 9.9871
2711.777632 64.478 9.3199
2731.428290 64.392 8.6820
2751.221345 64.304 8.0746
2771.157829 64.213 7.4991
2791.238781 64.121 6.9569
2811.465248 64.027 6.4493
2831.838284 63.932 5.9775
2852.358952 63.835 5.5432
2873.028321 63.738 5.1475
2893.847468 63.640 4.7921
2914.817480 63.542 4.4785
2935.939449 63.444 4.2081
2957.214476 63.347 3.9824
2978.643672 63.251 3.8030
3000.228152 63.156 3.6713
3021.969041 63.065 3.5886
3043.867475 62.976 3.5559
3065.924593 62.891 3.5741
3088.141547 62.811 3.6437
3110.519493 62.736 3.7644
3133.059600 62.668 3.9357
3155.763041 62.608 4.1558
3178.631001 62.557 4.4221
3201.664672 62.516 4.7310
3224.865254 62.485 5.0771
3248.233957 62.466 5.4542
3271.771999 62.460 5.8539
3295.480608 62.467 6.2670
3319.361019 62.488 6.6823
3343.414477 62.523 7.0876
3367.642236 62.571 7.4703
3392.045560 62.632 7.8168
3416.625721 62.705 8.1136
3441.383999 62.789 8.3481
3466.321686 62.882 8.5088
3491.440082 62.982 8.5854
3516.740496 63.088 8.5703
3542.224247 63.196 8.4578
3567.892664 63.306 8.2448
3593.747085 63.414 7.9308
3619.788858 63.519 7.5176
3646.019340 63.619 7.0093
3672.439900 63.712 6.4115
3699.051913 63.798 5.7314
3725.856768 63.874 4.9770
3752.855862 63.941 4.1570
3780.050603 63.997 3.2802
3807.442408 64.042 2.3553
3835.032705 64.076 1.3910
3862.822933 64.099 0.3953
3890.814540 64.111 -0.6243
3919.008986 64.111 -1.6610
3947.407741 64.102 -2.7085
3976.012284 64.082 -3.7612
4004.824108 64.051 -4.8144
4033.844715 64.012 -5.8636
4063.075616 63.963 -6.9051
4092.518337 63.905 -7.9356
4122.174412 63.838 -8.9523
4152.045387 63.764 -9.9526
4182.132820 63.681 -10.9343
4212.438278 63.590 -11.8954
4242.963342 63.492 -12.8340
4273.709604 63.387 -13.7480
4304.678665 63.274 -14.6356
4335.872141 63.154 -15.4948
4367.291658 63.027 -16.3232
4398.938854 62.893 -17.1187
4430.815378 62.752 -17.8783
4462.922893 62.604 -18.5994
4495.263072 62.449 -19.2787
4527.837601 62.287 -19.9127
4560.648179 62.118 -20.4979
4593.696515 61.943 -21.0302
4626.984334 61.761 -21.5055
4660.513370 61.573 -21.9194
4694.285371 61.380 -22.2678
4728.302098 61.181 -22.5459
4762.565324 60.977 -22.7494
4797.076835 60.768 -22.8737
4831.838432 60.556 -22.9142
4866.851925 60.341 -22.8667
4902.119140 60.124 -22.7266
4937.641916 59.906 -22.4899
4973.422105 59.687 -22.1523
5009.461572 59.469 -21.7101
5045.762195 59.252 -21.1597
5082.325868 59.039 -20.4978
5119.154496 58.830 -19.7217
5156.250000 58.628 -18.8293
5193.614313 58.432 -17.8192
5231.249383 58.246 -16.6911
5269.157173 58.071 -15.4457
5307.339658 57.908 -14.0853
5345.798829 57.760 -12.6138
5384.536691 57.628 -11.0367
5423.555263 57.515 -9.3622
5462.856580 57.420 -7.6000
5502.442691 57.347 -5.7625
5542.315659 57.296 -3.8643
5582.477563 57.269 -1.9220
5622.930497 57.266 0.0459
5663.676569 57.286 2.0196
5704.717904 57.331 3.9783
5746.056642 57.400 5.9010
5787.694937 57.491 7.7668
5829.634960 57.603 9.5564
5871.878898 57.736 11.2513
5914.428953 57.886 12.8356
5957.287343 58.052 14.2951
6000.456303 58.231 15.6188
6043.938083 58.421 16.7979
6087.734950 58.620 17.8262
6131.849187 58.825 18.7002
6176.283094 59.034 19.4185
6221.038987 59.243 19.9819
6266.119200 59.452 20.3931
6311.526083 59.658 20.6564
6357.262002 59.859 20.7777
6403.329344 60.052 20.7643
6449.730508 60.237 20.6246
6496.467914 60.411 20.3682
6543.543998 60.573 20.0056
6590.961215 60.722 19.5483
6638.722037 60.857 19.0088
6686.828954 60.977 18.3998
6735.284473 61.080 17.7349
6784.091120 61.168 17.0282
6833.251441 61.240 16.2937
6882.767998 61.295 15.5458
6932.643372 61.335 14.7984
6982.880164 61.360 14.0649
7033.480992 61.370 13.3583
7084.448495 61.368 12.6902
7135.785329 61.355 12.0713
7187.494171 61.332 11.5109
7239.577717 61.301 11.0166
7292.038681 61.265 10.5945
7344.879799 61.225 10.2484
7398.103826 61.183 9.9805
7451.713536 61.143 9.7903
7505.711724 61.106 9.6758
7560.101205 61.074 9.6319
7614.884815 61.049 9.6520
7670.065409 61.033 9.7269
7725.645865 61.028 9.8456
7781.629080 61.035 9.9957
7838.017972 61.054 10.1632
7894.815481 61.086 10.3334
7952.024569 61.131 10.4912
8009.648217 61.188 10.6217
8067.689429 61.256 10.7107
8126.151233 61.335 10.7451
8185.036674 61.421 10.7133
8244.348824 61.513 10.6054
8304.090774 61.609 10.4140
8364.265639 61.708 10.1336
8424.876556 61.805 9.7612
8485.926684 61.900 9.2959
8547.419207 61.989 8.7393
8609.357330 62.072 8.0951
8671.744282 62.144 7.3688
8734.583316 62.206 6.5680
8797.877707 62.255 5.7017
8861.630756 62.290 4.7803
8925.845785 62.309 3.8151
8990.526143 62.313 2.8181
9055.675202 62.301 1.8016
9121.296357 62.273 0.7780
9187.393031 62.230 -0.2416
9253.968668 62.171 -1.2464
9321.026740 62.099 -2.2271
9388.570742 62.014 -3.1761
9456.604196 61.918 -4.0875
9525.130648 61.813 -4.9578
9594.153671 61.699 -5.7850
9663.676863 61.580 -6.5699
9733.703850 61.457 -7.3149
9804.238280 61.331 -8.0248
9875.283832 61.205 -8.7056
9946.844210 61.079 -9.3654
10018.923143 60.955 -10.0128
10091.524390 60.833 -10.6577
10164.651736 60.715 -11.3098
10238.308993 60.599 -11.9789
10312.500000 60.486 -12.6741
10387.228626 60.375 -13.4031
10462.498767 60.266 -14.1725
10538.314345 60.155 -14.9870
10614.679315 60.043 -15.8492
10691.597657 59.927 -16.7599
10769.073381 59.805 -17.7176
10847.110526 59.676 -18.7188
10925.713161 59.538 -19.7584
11004.885382 59.390 -20.8298
11084.631318 59.230 -21.9252
11164.955126 59.057 -23.0361
11245.860993 58.870 -24.1532
11327.353138 58.668 -25.2673
11409.435808 58.452 -26.3690
11492.113283 58.220 -27.4487
11575.389873 57.973 -28.4969
11659.269920 57.710 -29.5040
11743.757796 57.432 -30.4604
11828.857906 57.138 -31.3563
11914.574686 56.829 -32.1815
12000.912606 56.505 -32.9257
12087.876166 56.166 -33.5782
12175.469900 55.812 -34.1279
12263.698373 55.445 -34.5638
12352.566187 55.064 -34.8743
12442.077974 54.671 -35.0477
12532.238400 54.265 -35.0724
12623.052165 53.848 -34.9368
12714.524005 53.421 -34.6288
12806.658687 52.983 -34.1373
12899.461015 52.538 -33.4512
12992.935827 52.085 -32.5602
13087.087996 51.625 -31.4554
13181.922430 51.161 -30.1296
13277.444074 50.693 -28.5782
13373.657907 50.222 -26.7998
13470.568945 49.751 -24.7977
13568.182241 49.281 -22.5804
13666.502883 48.814 -20.1624
13765.535996 48.351 -17.5649
13865.286744 47.894 -14.8158
13965.760328 47.444 -11.9489
14066.961984 47.004 -9.0025
14168.896989 46.575 -6.0175
14271.570658 46.157 -3.0347
14374.988342 45.753 -0.0928
14479.155433 45.362 2.7743
14584.077362 44.985 5.5386
14689.759598 44.622 8.1793
14796.207652 44.273 10.6827
14903.427072 43.938 13.0420
15011.423448 43.615 15.2559
15120.202410 43.303 17.3281
15229.769630 43.001 19.2655
15340.130819 42.709 21.0776
15451.291730 42.424 22.7753
15563.258160 42.145 24.3699
15676.035944 41.871 25.8726
15789.630962 41.600 27.2942
15904.049137 41.333 28.6449
16019.296433 41.067 29.9338
16135.378859 40.802 31.1692
16252.302465 40.536 32.3582
16370.073348 40.271 33.5074
16488.697648 40.003 34.6225
16608.181548 39.734 35.7085
16728.531278 39.463 36.7699
16849.753112 39.189 37.8114
16971.853368 38.911 38.8373
17094.838414 38.630 39.8527
17218.714660 38.345 40.8631
17343.488565 38.055 41.8753
17469.166632 37.760 42.8967
17595.755415 37.461 43.9361
17723.261512 37.156 45.0029
17851.691571 36.847 46.1067
17981.052287 36.533 47.2572
18111.350404 36.216 48.4629
18242.592715 35.897 49.7303
18374.786062 35.577 51.0628
18507.937336 35.258 52.4594
18642.053479 34.943 53.9132
18777.141484 34.636 55.4105
18913.208391 34.339 56.9294
19050.261296 34.058 58.4402
19188.307342 33.796 59.9059
19327.353727 33.559 61.2833
19467.407699 33.352 62.5265
19608.476560 33.178 63.5893
19750.567664 33.044 64.4291
19893.688419 32.952 65.0104
20037.846286 32.906 65.3077
