* Measurement data measured by REW V5.20.9
* Source: Микрофон (HiBy FC3), MICROPHONE (Общая громкость), L, volume: 0,900. Timing signal peak level -44,7 dBFS, measurement signal peak level -5,0 dBFS
* Format: 256k Log Swept Sine, 1 sweep at -12,0 dBFS using an acoustic timing reference
* Dated: 17.01.2023 20:35:42
* REW Settings:
*  C-weighting compensation: Off
*  Target level: 75.0 dB
* Note: Delay -0,0081 ms (-2,8 mm, -0,11 in) using estimated IR delay relative to Acoustic reference on SPEAKER L with no timing offset
* Measurement: PR1 Pro
* Smoothing: 1/12 octave
* Frequency Step: 96 ppo
* Start Frequency: 20.141602 Hz
*
* Freq(Hz) SPL(dB) Phase(degrees)
20.141602 85.784 -173.9723
20.287556 85.781 -173.9246
20.434568 85.777 -173.9464
20.582645 85.772 -174.0132
20.731796 85.767 -174.1060
20.882027 85.764 -174.2140
21.033346 85.763 -174.3338
21.185763 85.764 -174.4684
21.339284 85.767 -174.6199
21.493917 85.772 -174.7929
21.649671 85.777 -174.9900
21.806553 85.781 -175.2110
21.964572 85.783 -175.4517
22.123737 85.782 -175.7148
22.284054 85.777 -175.9820
22.445534 85.767 -176.2377
22.608183 85.755 -176.4696
22.772012 85.740 -176.6680
22.937027 85.726 -176.8277
23.103238 85.715 -176.9589
23.270654 85.708 -177.0660
23.439282 85.708 -177.1577
23.609133 85.714 -177.2522
23.780215 85.726 -177.3690
23.952536 85.741 -177.5245
24.126106 85.756 -177.7401
24.300934 85.765 -178.0102
24.477028 85.767 -178.3220
24.654399 85.758 -178.6579
24.833055 85.736 -178.9936
25.013005 85.702 -179.3033
25.194260 85.660 -179.5748
25.376828 85.614 -179.7781
25.560719 85.570 -179.9089
25.745942 85.536 -179.9783
25.932508 85.516 179.9875
26.120426 85.514 179.9449
26.309705 85.530 179.8549
26.500356 85.560 179.6844
26.692388 85.600 179.4107
26.885812 85.640 179.0295
27.080638 85.674 178.5540
27.276876 85.694 178.0168
27.474535 85.696 177.4703
27.673627 85.679 176.9655
27.874161 85.645 176.5498
28.076149 85.601 176.2580
28.279600 85.552 176.1051
28.484526 85.506 176.0823
28.690937 85.471 176.1584
28.898843 85.449 176.2853
29.108256 85.442 176.4047
29.319186 85.446 176.4688
29.531645 85.457 176.4488
29.745644 85.467 176.3335
29.961193 85.471 176.1319
30.178304 85.466 175.8777
30.396989 85.451 175.5971
30.617258 85.427 175.3211
30.839123 85.398 175.0752
31.062596 85.368 174.8667
31.287688 85.341 174.6863
31.514412 85.320 174.5413
31.742778 85.305 174.4172
31.972800 85.295 174.3002
32.204488 85.288 174.1593
32.437855 85.281 174.0132
32.672913 85.272 173.8713
32.909674 85.259 173.7433
33.148151 85.244 173.6501
33.388356 85.228 173.5918
33.630302 85.214 173.5578
33.874001 85.204 173.5369
34.119466 85.199 173.5005
34.366710 85.199 173.4290
34.615745 85.205 173.3179
34.866585 85.213 173.1578
35.119243 85.220 172.9453
35.373731 85.225 172.6885
35.630064 85.226 172.4063
35.888254 85.221 172.1174
36.148315 85.212 171.8363
36.410261 85.200 171.5776
36.674104 85.186 171.3513
36.939860 85.173 171.1578
37.207542 85.161 170.9833
37.477163 85.150 170.8257
37.748738 85.141 170.6794
38.022281 85.132 170.5382
38.297806 85.123 170.3967
38.575327 85.112 170.2553
38.854860 85.099 170.1134
39.136419 85.086 169.9693
39.420017 85.071 169.8210
39.705671 85.056 169.6665
39.993395 85.040 169.5043
40.283203 85.024 169.3212
40.575112 85.007 169.1322
40.869136 84.991 168.9405
41.165290 84.975 168.7524
41.463591 84.961 168.5688
41.764053 84.947 168.3877
42.066693 84.933 168.2052
42.371525 84.920 168.0120
42.678567 84.905 167.8238
42.987834 84.889 167.6435
43.299341 84.872 167.4683
43.613106 84.854 167.3044
43.929145 84.837 167.1501
44.247473 84.820 167.0037
44.568109 84.804 166.8593
44.891068 84.787 166.7128
45.216367 84.771 166.5495
45.544023 84.754 166.3774
45.874054 84.736 166.2064
46.206476 84.717 166.0428
46.541307 84.698 165.8865
46.878565 84.680 165.7349
47.218266 84.663 165.5925
47.560429 84.648 165.4558
47.905072 84.634 165.3212
48.252212 84.621 165.1683
48.601867 84.608 165.0108
48.954056 84.595 164.8574
49.308798 84.580 164.7065
49.666109 84.563 164.5598
50.026010 84.543 164.4164
50.388520 84.521 164.2661
50.753656 84.497 164.1183
51.121437 84.474 163.9797
51.491884 84.453 163.8563
51.865016 84.433 163.7277
52.240851 84.415 163.5722
52.619410 84.399 163.4023
53.000712 84.382 163.2355
53.384777 84.366 163.0703
53.771625 84.349 162.9167
54.161276 84.331 162.7717
54.553751 84.312 162.6299
54.949070 84.293 162.4883
55.347254 84.272 162.3772
55.748323 84.251 162.2665
56.152298 84.230 162.1227
56.559201 84.209 161.9274
56.969052 84.188 161.7305
57.381873 84.167 161.5684
57.797686 84.146 161.4116
58.216512 84.124 161.2643
58.638373 84.101 161.1277
59.063291 84.077 160.9937
59.491288 84.053 160.8410
59.922386 84.030 160.6914
60.356608 84.006 160.5586
60.793977 83.983 160.4315
61.234515 83.960 160.2983
61.678246 83.938 160.1608
62.125192 83.916 160.0278
62.575377 83.894 159.9006
63.028824 83.871 159.7752
63.485557 83.849 159.6399
63.945599 83.825 159.5071
64.408975 83.802 159.3706
64.875709 83.778 159.2363
65.345825 83.754 159.0972
65.819348 83.729 158.9581
66.296302 83.705 158.8329
66.776713 83.680 158.7162
67.260604 83.655 158.5938
67.748002 83.630 158.4669
68.238932 83.605 158.3480
68.733420 83.579 158.2391
69.231490 83.553 158.1155
69.733170 83.527 157.9739
70.238485 83.500 157.8433
70.747463 83.473 157.7233
71.260128 83.446 157.6049
71.776508 83.419 157.4876
72.296630 83.392 157.3673
72.820521 83.365 157.2469
73.348209 83.339 157.1430
73.879720 83.312 157.0515
74.415083 83.286 156.9222
74.954326 83.259 156.7836
75.497475 83.232 156.6843
76.044561 83.204 156.5816
76.595612 83.176 156.4023
77.150655 83.147 156.2570
77.709720 83.117 156.2041
78.272837 83.087 156.1418
78.840034 83.058 156.0690
79.411342 83.030 155.9828
79.986789 83.001 155.8923
80.566406 82.973 155.8323
81.150224 82.945 155.7766
81.738272 82.917 155.7266
82.330581 82.888 155.6240
82.927182 82.859 155.4791
83.528107 82.830 155.3384
84.133386 82.800 155.2064
84.743051 82.770 155.1017
85.357134 82.740 155.0509
85.975667 82.710 155.0402
86.598682 82.680 154.8965
87.226212 82.650 154.7685
87.858289 82.619 154.6771
88.494946 82.588 154.6399
89.136217 82.558 154.5901
89.782135 82.527 154.4278
90.432733 82.497 154.3408
91.088046 82.467 154.2912
91.748108 82.437 154.2324
92.412952 82.407 154.1594
93.082615 82.377 154.0800
93.757130 82.347 154.0122
94.436533 82.316 153.9382
95.120859 82.285 153.8659
95.810144 82.253 153.8129
96.504423 82.222 153.7706
97.203734 82.190 153.7167
97.908112 82.158 153.6236
98.617595 82.126 153.5560
99.332219 82.095 153.4817
100.052021 82.064 153.4042
100.777039 82.032 153.4555
101.507311 82.001 153.4291
102.242875 81.969 153.3431
102.983769 81.936 153.2064
103.730032 81.903 153.1582
104.481702 81.870 153.0813
105.238820 81.837 153.0289
106.001424 81.803 153.0683
106.769554 81.769 153.0804
107.543250 81.736 152.9606
108.322553 81.703 152.8597
109.107503 81.672 152.8616
109.898141 81.640 152.8310
110.694508 81.608 152.6967
111.496646 81.576 152.7296
112.304596 81.542 152.7739
113.118402 81.509 152.6564
113.938104 81.476 152.5886
114.763747 81.443 152.5601
115.595372 81.410 152.5775
116.433024 81.377 152.5554
117.276746 81.344 152.4727
118.126581 81.311 152.4013
118.982575 81.279 152.4801
119.844772 81.246 152.4564
120.713217 81.213 152.4043
121.587954 81.181 152.3842
122.469031 81.149 152.4179
123.356492 81.117 152.4688
124.250384 81.085 152.4457
125.150753 81.052 152.2946
126.057647 81.019 152.1940
126.971113 80.985 152.2869
127.891198 80.951 152.2717
128.817950 80.916 152.4507
129.751418 80.881 152.4786
130.691651 80.844 152.3772
131.638696 80.807 152.3662
132.592604 80.771 152.3070
133.553425 80.735 152.2527
134.521208 80.700 152.1879
135.496004 80.665 152.2070
136.477864 80.631 152.1851
137.466839 80.596 152.1735
138.462981 80.562 152.3203
139.466340 80.527 152.3423
140.476971 80.491 152.3422
141.494925 80.455 152.3877
142.520256 80.419 152.3890
143.553016 80.384 152.2893
144.593260 80.348 152.2270
145.641043 80.313 152.3904
146.696418 80.278 152.3794
147.759441 80.243 152.4591
148.830166 80.209 152.4797
149.908651 80.176 152.5676
150.994951 80.143 152.6033
152.089123 80.110 152.7142
153.191223 80.078 152.5812
154.301310 80.046 152.7468
155.419441 80.013 152.7583
156.545674 79.981 152.6987
157.680069 79.949 152.7380
158.822683 79.916 152.8391
159.973578 79.883 152.9062
161.132813 79.849 152.8438
162.300447 79.815 152.9977
163.476543 79.781 153.0090
164.661162 79.746 153.1052
165.854364 79.712 153.1291
167.056213 79.678 153.0126
168.266772 79.644 153.1593
169.486102 79.611 153.2490
170.714268 79.576 153.1989
171.951334 79.542 153.5986
173.197364 79.507 153.3188
174.452424 79.473 153.6290
175.716578 79.438 153.6984
176.989893 79.404 153.5325
178.272434 79.369 153.7552
179.564270 79.334 153.7145
180.865467 79.299 153.9850
182.176092 79.265 153.8803
183.496216 79.230 153.9371
184.825905 79.196 154.0617
186.165229 79.163 153.9430
187.514259 79.129 154.2426
188.873065 79.096 154.3127
190.241717 79.062 154.4011
191.620287 79.028 154.4188
193.008847 78.994 154.6334
194.407468 78.960 154.6217
195.816225 78.927 154.5812
197.235190 78.893 154.8292
198.664438 78.858 154.7413
200.104042 78.823 155.2013
201.554078 78.787 155.1975
203.014622 78.751 155.0628
204.485750 78.715 155.4392
205.967538 78.680 155.3765
207.460064 78.644 155.6221
208.963405 78.608 155.6110
210.477640 78.572 155.9214
212.002848 78.536 155.7586
213.539108 78.501 156.0835
215.086500 78.466 156.3370
216.645105 78.430 156.4278
218.215005 78.395 156.6120
219.796281 78.360 156.6268
221.389015 78.327 156.9750
222.993292 78.295 157.0061
224.609193 78.265 157.2196
226.236804 78.237 157.5874
227.876209 78.211 157.6356
229.527494 78.188 157.8908
231.190745 78.166 158.2736
232.866048 78.148 158.3980
234.553491 78.131 158.7346
236.253163 78.117 158.8283
237.965150 78.105 159.0078
239.689544 78.096 159.2275
241.426433 78.088 159.3876
243.175909 78.081 159.5443
244.938062 78.074 159.5997
246.712984 78.066 159.7617
248.500768 78.057 159.8878
250.301507 78.044 159.9205
252.115295 78.029 159.9700
253.942226 78.012 160.1161
255.782396 77.993 160.1469
257.635901 77.972 160.1508
259.502837 77.949 160.3063
261.383301 77.925 160.2869
263.277392 77.900 160.4066
265.185209 77.875 160.5714
267.106850 77.849 160.4509
269.042417 77.823 160.6578
270.992009 77.797 160.9469
272.955729 77.771 160.9970
274.933678 77.745 161.0860
276.925961 77.719 161.2679
278.932681 77.693 161.0971
280.953942 77.667 161.4283
282.989850 77.640 161.7433
285.040511 77.614 161.6445
287.106032 77.587 161.5805
289.186521 77.561 162.0015
291.282086 77.535 162.0593
293.392836 77.509 162.2469
295.518881 77.485 162.4252
297.660333 77.461 162.6437
299.817302 77.438 162.6519
301.989902 77.415 162.8622
304.178245 77.392 162.9930
306.382446 77.370 163.2642
308.602620 77.348 163.5657
310.838882 77.327 163.5635
313.091348 77.306 163.7160
315.360137 77.285 163.8427
317.645367 77.266 164.0156
319.947156 77.246 164.0123
322.265625 77.227 164.4059
324.600895 77.208 164.6259
326.953086 77.189 164.9006
329.322323 77.170 164.9221
331.708729 77.150 164.9761
334.112427 77.131 165.2590
336.533543 77.112 165.5826
338.972204 77.095 165.8600
341.428536 77.078 166.1013
343.902668 77.062 166.2203
346.394729 77.045 166.4694
348.904848 77.029 166.6121
351.433156 77.012 166.6517
353.979786 76.995 167.0411
356.544869 76.978 167.0891
359.128540 76.961 167.4765
361.730934 76.946 167.5362
364.352185 76.931 167.8734
366.992431 76.917 167.7923
369.651810 76.903 167.9044
372.330459 76.889 168.3336
375.028519 76.876 168.5715
377.746130 76.862 168.7950
380.483434 76.848 169.1285
383.240574 76.835 169.2663
386.017693 76.822 169.5296
388.814937 76.810 169.5572
391.632450 76.799 169.9573
394.470380 76.789 170.0652
397.328875 76.780 170.3058
400.208084 76.771 170.5972
403.108157 76.762 170.7542
406.029245 76.754 171.0784
408.971500 76.745 171.2975
411.935076 76.736 171.4805
414.920127 76.727 171.9449
417.926810 76.719 171.6796
420.955280 76.711 172.1763
424.005695 76.704 172.4704
427.078215 76.696 172.6324
430.173000 76.688 173.0439
433.290211 76.679 173.0624
436.430010 76.670 173.4077
439.592562 76.662 173.5931
442.778031 76.653 173.5318
445.986583 76.646 174.3987
449.218386 76.639 174.4347
452.473607 76.634 174.5375
455.752418 76.628 174.8013
459.054987 76.623 174.8698
462.381489 76.617 175.2865
465.732096 76.612 175.4101
469.106983 76.607 175.6554
472.506325 76.603 176.0763
475.930301 76.599 176.3956
479.379088 76.596 176.2249
482.852867 76.593 176.4700
486.351817 76.590 176.9812
489.876123 76.587 177.4462
493.425968 76.585 177.2326
497.001536 76.582 177.7476
500.603014 76.580 178.0039
504.230589 76.579 178.3221
507.884452 76.580 178.6340
511.564792 76.581 178.7416
515.271802 76.583 178.7318
519.005673 76.584 179.0645
522.766602 76.586 179.4799
526.554785 76.588 179.7632
530.370418 76.590 179.8928
534.213700 76.593 -179.3275
538.084833 76.596 -179.4009
541.984018 76.601 -179.4595
545.911457 76.605 -178.8253
549.867357 76.610 -178.6659
553.851922 76.616 -178.4750
557.865362 76.622 -177.8188
561.907884 76.630 -177.7048
565.979700 76.640 -177.3846
570.081022 76.650 -177.2184
574.212064 76.660 -177.2989
578.373042 76.671 -177.1199
582.564171 76.681 -176.6177
586.785671 76.691 -176.2669
591.037762 76.702 -176.2138
595.320665 76.712 -175.8272
599.634604 76.723 -175.3179
603.979804 76.735 -175.0775
608.356491 76.747 -174.7690
612.764893 76.759 -174.5417
617.205240 76.771 -173.8413
621.677763 76.783 -174.2107
626.182696 76.795 -174.1049
630.720274 76.810 -173.3565
635.290733 76.826 -173.2370
639.894312 76.845 -172.8492
644.531250 76.865 -172.3463
649.201789 76.886 -172.3460
653.906173 76.907 -171.8161
658.644647 76.929 -171.8508
663.417457 76.952 -171.1989
668.224854 76.977 -171.0733
673.067086 77.003 -170.8022
677.944408 77.031 -170.5145
682.857073 77.060 -170.3193
687.805336 77.089 -169.9958
692.789457 77.117 -169.6077
697.809695 77.145 -168.8190
702.866312 77.172 -168.8080
707.959571 77.200 -168.7402
713.089738 77.229 -168.3222
718.257080 77.261 -167.7536
723.461867 77.294 -167.8311
728.704370 77.329 -167.1427
733.984862 77.365 -166.8521
739.303619 77.403 -166.8389
744.660918 77.442 -166.2568
750.057038 77.482 -166.2627
755.492260 77.523 -165.9308
760.966869 77.564 -165.8270
766.481148 77.606 -165.4277
772.035387 77.647 -165.1107
777.629873 77.689 -164.5896
783.264900 77.731 -164.4659
788.940760 77.773 -163.7377
794.657750 77.816 -163.9705
800.416168 77.859 -163.5563
806.216313 77.903 -162.6944
812.058489 77.949 -162.8506
817.943000 77.996 -162.5664
823.870152 78.044 -162.2810
829.840255 78.096 -161.6687
835.853619 78.149 -161.4431
841.910559 78.204 -160.9731
848.011390 78.261 -160.7797
854.156430 78.320 -160.1614
860.346000 78.381 -160.1010
866.580422 78.443 -159.9389
872.860020 78.507 -159.2899
879.185124 78.572 -159.4853
885.556062 78.638 -159.3375
891.973166 78.706 -158.9552
898.436771 78.773 -158.4413
904.947215 78.842 -158.3018
911.504835 78.910 -157.9277
918.109975 78.979 -157.3820
924.762978 79.050 -156.9899
931.464192 79.123 -157.1333
938.213966 79.199 -156.5613
945.012651 79.279 -156.1246
951.860602 79.361 -156.3570
958.758176 79.445 -156.0784
965.705733 79.532 -155.2529
972.703635 79.620 -155.0909
979.752246 79.709 -154.9576
986.851935 79.800 -154.9154
994.003071 79.892 -154.9853
1001.206027 79.986 -155.1963
1008.461179 80.080 -154.8983
1015.768904 80.175 -154.0469
1023.129584 80.271 -154.3307
1030.543603 80.366 -155.0240
1038.011347 80.460 -154.5304
1045.533205 80.552 -154.2910
1053.109569 80.643 -155.2125
1060.740836 80.732 -154.8702
1068.427401 80.817 -154.9500
1076.169666 80.898 -156.2813
1083.968035 80.973 -155.0152
1091.822915 81.043 -156.1938
1099.734713 81.106 -154.8840
1107.703844 81.164 -156.9579
1115.730723 81.216 -155.7724
1123.815768 81.260 -157.2606
1131.959400 81.299 -156.2441
1140.162045 81.332 -156.8015
1148.424129 81.360 -157.7315
1156.746083 81.385 -156.1173
1165.128342 81.407 -157.1665
1173.571343 81.425 -158.0471
1182.075524 81.439 -156.2390
1190.641331 81.445 -154.8357
1199.269209 81.435 -156.1220
1207.959608 81.400 -157.7386
1216.712981 81.338 -157.8994
1225.529785 81.251 -157.2732
1234.410479 81.151 -155.1218
1243.355526 81.046 -152.8530
1252.365393 80.943 -151.0354
1261.440549 80.847 -149.0350
1270.581467 80.763 -147.6512
1279.788624 80.699 -146.5973
1289.062500 80.663 -146.8579
1298.403578 80.658 -148.6037
1307.812346 80.680 -149.1220
1317.289293 80.720 -147.6112
1326.834914 80.768 -146.2344
1336.449707 80.818 -146.8416
1346.134173 80.869 -147.0728
1355.888816 80.918 -145.5829
1365.714145 80.964 -146.9207
1375.610673 81.008 -145.4641
1385.578915 81.050 -145.9795
1395.619391 81.091 -144.3942
1405.732624 81.130 -145.1318
1415.919142 81.169 -144.2235
1426.179476 81.208 -144.1319
1436.514160 81.248 -144.5091
1446.923734 81.288 -144.0808
1457.408740 81.328 -143.4208
1467.969724 81.370 -142.9763
1478.607238 81.411 -143.2877
1489.321836 81.451 -142.9572
1500.114076 81.491 -142.4182
1510.984521 81.530 -142.5155
1521.933737 81.564 -142.2699
1532.962297 81.593 -142.0723
1544.070773 81.616 -141.8403
1555.259747 81.632 -142.1253
1566.529800 81.643 -141.7913
1577.881521 81.651 -141.2889
1589.315501 81.658 -140.5510
1600.832336 81.667 -139.8706
1612.432627 81.681 -139.2998
1624.116978 81.704 -139.0692
1635.886000 81.737 -138.9837
1647.740304 81.781 -138.6048
1659.680509 81.837 -138.5980
1671.707238 81.904 -138.8098
1683.821118 81.979 -138.3848
1696.022780 82.060 -138.3737
1708.312860 82.147 -138.4853
1720.692000 82.239 -138.0814
1733.160843 82.333 -138.2664
1745.720041 82.429 -137.7484
1758.370248 82.528 -138.0147
1771.112124 82.629 -137.9570
1783.946332 82.731 -137.8073
1796.873543 82.834 -137.7023
1809.894429 82.939 -137.6351
1823.009670 83.044 -137.6874
1836.219950 83.151 -137.6906
1849.525956 83.258 -137.8072
1862.928384 83.366 -137.8788
1876.427931 83.475 -138.0077
1890.025301 83.584 -137.9276
1903.721204 83.694 -137.8718
1917.516352 83.805 -138.1155
1931.411466 83.917 -138.2117
1945.407270 84.030 -138.2472
1959.504493 84.143 -138.3961
1973.703870 84.258 -138.4907
1988.006142 84.375 -138.6274
2002.412054 84.494 -138.7256
2016.922357 84.616 -138.9025
2031.537808 84.741 -139.0110
2046.259169 84.871 -139.1804
2061.087206 85.005 -139.3267
2076.022694 85.145 -139.5153
2091.066410 85.291 -139.7502
2106.219139 85.443 -139.9810
2121.481671 85.602 -140.2753
2136.854802 85.766 -140.6433
2152.339333 85.935 -141.0985
2167.936071 86.106 -141.6087
2183.645829 86.278 -142.2142
2199.469427 86.448 -142.9130
2215.407689 86.614 -143.7196
2231.461446 86.774 -144.5929
2247.631536 86.925 -145.5499
2263.918800 87.067 -146.5883
2280.324089 87.198 -147.6720
2296.848258 87.319 -148.8172
2313.492167 87.428 -150.0030
2330.256685 87.525 -151.2106
2347.142685 87.612 -152.4417
2364.151049 87.688 -153.6780
2381.282662 87.754 -154.9430
2398.538418 87.809 -156.2033
2415.919216 87.855 -157.4615
2433.425962 87.891 -158.7211
2451.059570 87.917 -159.9632
2468.820958 87.935 -161.1954
2486.711052 87.944 -162.4247
2504.730786 87.945 -163.6063
2522.881098 87.940 -164.7849
2541.162934 87.929 -165.9147
2559.577248 87.913 -167.0287
2578.125000 87.892 -168.1243
2596.807157 87.868 -169.1940
2615.624692 87.842 -170.2489
2634.578586 87.812 -171.2796
2653.669829 87.780 -172.3048
2672.899414 87.746 -173.3233
2692.268345 87.709 -174.3396
2711.777632 87.669 -175.3599
2731.428290 87.626 -176.3806
2751.221345 87.578 -177.4247
2771.157829 87.526 -178.4554
2791.238781 87.469 -179.5248
2811.465248 87.404 179.3943
2831.838284 87.331 178.2670
2852.358952 87.247 177.1526
2873.028321 87.149 176.0060
2893.847468 87.034 174.8555
2914.817480 86.901 173.7324
2935.939449 86.746 172.6565
2957.214476 86.569 171.6718
2978.643672 86.370 170.8141
3000.228152 86.153 170.1025
3021.969041 85.924 169.5887
3043.867475 85.688 169.3078
3065.924593 85.455 169.2511
3088.141547 85.233 169.4302
3110.519493 85.031 169.7834
3133.059600 84.854 170.2701
3155.763041 84.704 170.8328
3178.631001 84.582 171.4468
3201.664672 84.485 172.0133
3224.865254 84.408 172.5433
3248.233957 84.347 173.0071
3271.771999 84.297 173.3978
3295.480608 84.253 173.7131
3319.361019 84.212 173.9766
3343.414477 84.171 174.1718
3367.642236 84.129 174.3355
3392.045560 84.084 174.4939
3416.625721 84.038 174.6360
3441.383999 83.989 174.7798
3466.321686 83.939 174.9356
3491.440082 83.887 175.1049
3516.740496 83.836 175.2926
3542.224247 83.784 175.4888
3567.892664 83.733 175.7200
3593.747085 83.683 175.9700
3619.788858 83.634 176.2463
3646.019340 83.588 176.5513
3672.439900 83.545 176.8867
3699.051913 83.507 177.2536
3725.856768 83.475 177.6645
3752.855862 83.451 178.0848
3780.050603 83.436 178.5262
3807.442408 83.428 178.9369
3835.032705 83.429 179.3540
3862.822933 83.437 179.7313
3890.814540 83.450 -179.9211
3919.008986 83.468 -179.6007
3947.407741 83.488 -179.3120
3976.012284 83.511 -179.0477
4004.824108 83.534 -178.8138
4033.844715 83.559 -178.6104
4063.075616 83.585 -178.4332
4092.518337 83.612 -178.2536
4122.174412 83.639 -178.1113
4152.045387 83.666 -177.9717
4182.132820 83.693 -177.8820
4212.438278 83.719 -177.7883
4242.963342 83.742 -177.7234
4273.709604 83.762 -177.6534
4304.678665 83.778 -177.6071
4335.872141 83.790 -177.5259
4367.291658 83.799 -177.4476
4398.938854 83.806 -177.3115
4430.815378 83.812 -177.1341
4462.922893 83.821 -176.8957
4495.263072 83.835 -176.6027
4527.837601 83.856 -176.2522
4560.648179 83.889 -175.8570
4593.696515 83.935 -175.4196
4626.984334 83.996 -174.9725
4660.513370 84.075 -174.5082
4694.285371 84.173 -174.0775
4728.302098 84.288 -173.7185
4762.565324 84.420 -173.4447
4797.076835 84.566 -173.2309
4831.838432 84.724 -173.1548
4866.851925 84.891 -173.1998
4902.119140 85.063 -173.3949
4937.641916 85.239 -173.6927
4973.422105 85.417 -174.1293
5009.461572 85.595 -174.6982
5045.762195 85.772 -175.4071
5082.325868 85.946 -176.2389
5119.154496 86.116 -177.2145
5156.250000 86.278 -178.3253
5193.614313 86.431 -179.5857
5231.249383 86.573 179.0112
5269.157173 86.699 177.4824
5307.339658 86.808 175.8201
5345.798829 86.897 174.0358
5384.536691 86.962 172.1342
5423.555263 87.002 170.1255
5462.856580 87.013 168.0522
5502.442691 86.993 165.9240
5542.315659 86.940 163.7608
5582.477563 86.853 161.5890
5622.930497 86.732 159.4487
5663.676569 86.578 157.3687
5704.717904 86.392 155.3677
5746.056642 86.177 153.4819
5787.694937 85.935 151.7151
5829.634960 85.669 150.0974
5871.878898 85.381 148.6116
5914.428953 85.073 147.2876
5957.287343 84.747 146.1632
6000.456303 84.404 145.1849
6043.938083 84.047 144.4212
6087.734950 83.679 143.8711
6131.849187 83.304 143.5778
6176.283094 82.926 143.4986
6221.038987 82.552 143.6608
6266.119200 82.185 144.0651
6311.526083 81.832 144.6924
6357.262002 81.495 145.4633
6403.329344 81.177 146.4036
6449.730508 80.880 147.4706
6496.467914 80.605 148.6603
6543.543998 80.350 149.9034
6590.961215 80.115 151.2037
6638.722037 79.898 152.5731
6686.828954 79.699 153.9692
6735.284473 79.516 155.4045
6784.091120 79.348 156.8610
6833.251441 79.193 158.3332
6882.767998 79.052 159.8246
6932.643372 78.923 161.3365
6982.880164 78.806 162.8732
7033.480992 78.699 164.4279
7084.448495 78.604 166.0051
7135.785329 78.519 167.6088
7187.494171 78.445 169.2546
7239.577717 78.382 170.9158
7292.038681 78.330 172.6311
7344.879799 78.290 174.3731
7398.103826 78.264 176.2030
7451.713536 78.252 178.0557
7505.711724 78.259 179.9901
7560.101205 78.286 -178.0423
7614.884815 78.337 -176.0152
7670.065409 78.414 -173.9643
7725.645865 78.520 -171.9052
7781.629080 78.656 -169.8503
7838.017972 78.824 -167.8270
7894.815481 79.025 -165.8585
7952.024569 79.259 -164.0123
8009.648217 79.526 -162.2762
8067.689429 79.825 -160.6983
8126.151233 80.153 -159.2979
8185.036674 80.507 -158.1037
8244.348824 80.886 -157.2021
8304.090774 81.284 -156.5494
8364.265639 81.697 -156.2156
8424.876556 82.121 -156.1967
8485.926684 82.548 -156.5724
8547.419207 82.970 -157.3006
8609.357330 83.373 -158.4583
8671.744282 83.744 -160.0456
8734.583316 84.065 -162.0023
8797.877707 84.322 -164.3076
8861.630756 84.502 -166.7719
8925.845785 84.598 -169.3604
8990.526143 84.610 -171.8827
9055.675202 84.543 -174.2053
9121.296357 84.410 -176.1965
9187.393031 84.229 -177.7424
9253.968668 84.018 -178.8247
9321.026740 83.801 -179.4000
9388.570742 83.598 -179.4476
9456.604196 83.429 -179.0783
9525.130648 83.311 -178.3423
9594.153671 83.256 -177.3442
9663.676863 83.273 -176.1779
9733.703850 83.365 -175.0244
9804.238280 83.528 -173.9693
9875.283832 83.756 -173.1453
9946.844210 84.037 -172.6439
10018.923143 84.357 -172.5752
10091.524390 84.700 -172.9276
10164.651736 85.053 -173.7290
10238.308993 85.399 -175.0410
10312.500000 85.726 -176.7611
10387.228626 86.022 -178.9154
10462.498767 86.276 178.5697
10538.314345 86.478 175.7396
10614.679315 86.622 172.6310
10691.597657 86.701 169.3211
10769.073381 86.710 165.8318
10847.110526 86.645 162.3735
10925.713161 86.504 158.8870
11004.885382 86.290 155.5338
11084.631318 86.006 152.3612
11164.955126 85.657 149.4680
11245.860993 85.252 146.8893
11327.353138 84.800 144.7010
11409.435808 84.312 142.9333
11492.113283 83.800 141.5869
11575.389873 83.273 140.6863
11659.269920 82.744 140.2121
11743.757796 82.221 140.1609
11828.857906 81.714 140.4572
11914.574686 81.228 141.1487
12000.912606 80.770 142.1271
12087.876166 80.344 143.3870
12175.469900 79.952 144.8686
12263.698373 79.598 146.5681
12352.566187 79.281 148.4321
12442.077974 79.003 150.4103
12532.238400 78.764 152.5334
12623.052165 78.563 154.7004
12714.524005 78.400 156.9333
12806.658687 78.274 159.2596
12899.461015 78.185 161.6005
12992.935827 78.135 164.0292
13087.087996 78.127 166.4541
13181.922430 78.164 168.8987
13277.444074 78.250 171.4012
13373.657907 78.393 173.8062
13470.568945 78.597 176.1940
13568.182241 78.867 178.4282
13666.502883 79.205 -179.5592
13765.535996 79.610 -177.8649
13865.286744 80.076 -176.6505
13965.760328 80.595 -175.8823
14066.961984 81.151 -175.8387
14168.896989 81.725 -176.5121
14271.570658 82.295 -177.9053
14374.988342 82.833 179.8781
14479.155433 83.313 176.9071
14584.077362 83.706 173.2500
14689.759598 83.985 168.9686
14796.207652 84.131 164.3148
14903.427072 84.128 159.4806
15011.423448 83.973 154.6497
15120.202410 83.670 150.1062
15229.769630 83.234 145.9773
15340.130819 82.688 142.5136
15451.291730 82.058 139.8347
15563.258160 81.373 137.9371
15676.035944 80.663 136.8671
15789.630962 79.953 136.5081
15904.049137 79.267 136.9540
16019.296433 78.622 137.9748
16135.378859 78.032 139.5107
16252.302465 77.504 141.4886
16370.073348 77.045 143.8827
16488.697648 76.660 146.5414
16608.181548 76.350 149.4726
16728.531278 76.121 152.5843
16849.753112 75.977 155.7822
16971.853368 75.923 159.0287
17094.838414 75.963 162.2891
17218.714660 76.101 165.3732
17343.488565 76.333 168.1103
17469.166632 76.654 170.4061
17595.755415 77.049 172.1944
17723.261512 77.499 173.2439
17851.691571 77.979 173.5297
17981.052287 78.459 172.9733
18111.350404 78.906 171.5641
18242.592715 79.289 169.4221
18374.786062 79.578 166.5722
18507.937336 79.746 163.2991
18642.053479 79.775 159.6485
18777.141484 79.657 156.0601
18913.208391 79.395 152.6696
19050.261296 79.006 149.8614
19188.307342 78.519 147.7685
19327.353727 77.975 146.4709
19467.407699 77.419 146.0989
19608.476560 76.901 146.3759
19750.567664 76.467 147.2351
19893.688419 76.158 148.1982
20037.846286 75.997 149.0566
