* Measurement data measured by REW V5.31.3
* Source: Input device not selected, no input selected, L, volume: 1,000
* Format: 256k Log Swept Sine, 1 sweep at -20,0 dBFS with no timing reference
* Dated: 26.05.2025 16:31:03
* REW Settings:
*  C-weighting compensation: Off
*  Target level: 75.0 dB
* Note: 
* Measurement: Oppo Enco Free 4
* Smoothing: 1/12 octave
* Frequency Step: 96 ppo
* Start Frequency: 20.187378 Hz
*
* Freq(Hz) SPL(dB) Phase(degrees)
20.187378 110.053 -51.3171
20.333664 110.061 -51.3357
20.481010 110.073 -51.3634
20.629424 110.086 -51.3956
20.778913 110.098 -51.4246
20.929486 110.110 -51.4407
21.081150 110.120 -51.4336
21.233912 110.130 -51.3930
21.387782 110.141 -51.3110
21.542767 110.154 -51.1834
21.698874 110.171 -51.0104
21.856113 110.193 -50.7975
22.014492 110.221 -50.5545
22.174018 110.255 -50.2944
22.334700 110.294 -50.0317
22.496546 110.338 -49.7796
22.659566 110.383 -49.5489
22.823766 110.428 -49.3454
22.989157 110.469 -49.1693
23.155745 110.505 -49.0155
23.323542 110.533 -48.8737
23.492554 110.554 -48.7306
23.662790 110.567 -48.5716
23.834261 110.573 -48.3831
24.006973 110.574 -48.1548
24.180938 110.574 -47.8817
24.356163 110.575 -47.5650
24.532658 110.579 -47.2123
24.710431 110.589 -46.8368
24.889493 110.605 -46.4552
25.069853 110.627 -46.0850
25.251519 110.655 -45.7416
25.434502 110.686 -45.4360
25.618811 110.719 -45.1730
25.804456 110.750 -44.9510
25.991445 110.779 -44.7626
26.179790 110.803 -44.5961
26.369500 110.822 -44.4377
26.560584 110.837 -44.2734
26.753053 110.849 -44.0915
26.946917 110.859 -43.8839
27.142185 110.868 -43.6467
27.338869 110.878 -43.3803
27.536977 110.890 -43.0885
27.736522 110.904 -42.7774
27.937512 110.921 -42.4535
28.139959 110.939 -42.1225
28.343872 110.958 -41.7884
28.549264 110.978 -41.4530
28.756143 110.997 -41.1164
28.964522 111.016 -40.7776
29.174411 111.033 -40.4350
29.385821 111.050 -40.0878
29.598763 111.067 -39.7361
29.813248 111.085 -39.3811
30.029287 111.103 -39.0248
30.246891 111.122 -38.6694
30.466073 111.141 -38.3162
30.686842 111.160 -37.9650
30.909212 111.178 -37.6140
31.133193 111.196 -37.2595
31.358797 111.212 -36.8963
31.586035 111.226 -36.5194
31.814921 111.239 -36.1245
32.045465 111.251 -35.7101
32.277680 111.264 -35.2777
32.511577 111.277 -34.8325
32.747169 111.292 -34.3828
32.984469 111.309 -33.9382
33.223488 111.327 -33.5079
33.464239 111.345 -33.0978
33.706735 111.363 -32.7088
33.950987 111.378 -32.3361
34.197010 111.391 -31.9695
34.444816 111.400 -31.5956
34.694417 111.408 -31.2011
34.945827 111.414 -30.7760
35.199059 111.423 -30.3170
35.454126 111.434 -29.8280
35.711041 111.449 -29.3198
35.969818 111.469 -28.8069
36.230470 111.491 -28.3026
36.493011 111.513 -27.8157
36.757455 111.534 -27.3469
37.023814 111.550 -26.8893
37.292104 111.562 -26.4310
37.562338 111.568 -25.9586
37.834530 111.571 -25.4622
38.108695 111.573 -24.9381
38.384846 111.575 -24.3901
38.662999 111.579 -23.8270
38.943167 111.584 -23.2596
39.225365 111.591 -22.6962
39.509608 111.599 -22.1401
39.795911 111.607 -21.5897
40.084289 111.615 -21.0398
40.374756 111.624 -20.4853
40.667328 111.634 -19.9231
40.962020 111.646 -19.3537
41.258848 111.660 -18.7798
41.557827 111.674 -18.2038
41.858972 111.688 -17.6253
42.162299 111.700 -17.0405
42.467824 111.709 -16.4436
42.775564 111.715 -15.8292
43.085533 111.718 -15.1953
43.397749 111.720 -14.5453
43.712227 111.723 -13.8861
44.028983 111.727 -13.2259
44.348036 111.732 -12.5705
44.669400 111.738 -11.9213
44.993093 111.744 -11.2758
45.319131 111.751 -10.6295
45.647532 111.756 -9.9786
45.978313 111.758 -9.3201
46.311491 111.755 -8.6511
46.647083 111.746 -7.9667
46.985107 111.729 -7.2609
47.325581 111.706 -6.5289
47.668521 111.682 -5.7726
48.013947 111.660 -5.0049
48.361876 111.645 -4.2478
48.712326 111.639 -3.5255
49.065315 111.643 -2.8528
49.420863 111.653 -2.2254
49.778987 111.666 -1.6197
50.139706 111.679 -1.0006
50.503039 111.689 -0.3361
50.869005 111.698 0.3902
51.237623 111.704 1.1746
51.608912 111.708 1.9975
51.982891 111.709 2.8349
52.359580 111.708 3.6691
52.739000 111.704 4.4940
53.121168 111.700 5.3135
53.506106 111.700 6.1358
53.893833 111.706 6.9676
54.284370 111.717 7.8126
54.677737 111.733 8.6713
55.073955 111.749 9.5426
55.473043 111.761 10.4239
55.875024 111.765 11.3108
56.279917 111.759 12.1966
56.687745 111.744 13.0738
57.098527 111.720 13.9375
57.512287 111.690 14.7879
57.929045 111.659 15.6310
58.348822 111.629 16.4769
58.771642 111.603 17.3368
59.197525 111.583 18.2207
59.626495 111.568 19.1368
60.058573 111.558 20.0904
60.493782 111.551 21.0843
60.932145 111.548 22.1182
61.373685 111.547 23.1907
61.818424 111.549 24.3017
62.266386 111.553 25.4530
62.717593 111.558 26.6451
63.172071 111.565 27.8715
63.629842 111.572 29.1155
64.090930 111.579 30.3525
64.555359 111.584 31.5564
65.023154 111.588 32.7076
65.494339 111.591 33.7976
65.968938 111.595 34.8296
66.446976 111.602 35.8170
66.928478 111.613 36.7795
67.413469 111.630 37.7387
67.901975 111.650 38.7129
68.394021 111.673 39.7145
68.889632 111.695 40.7483
69.388835 111.716 41.8100
69.891655 111.735 42.8880
70.398118 111.752 43.9684
70.908252 111.765 45.0441
71.422083 111.777 46.1187
71.939636 111.785 47.2024
72.460941 111.792 48.3034
72.986023 111.797 49.4221
73.514909 111.799 50.5522
74.047629 111.798 51.6854
74.584208 111.793 52.8130
75.124676 111.787 53.9279
75.669061 111.781 55.0266
76.217390 111.776 56.1131
76.769692 111.771 57.1989
77.325997 111.765 58.2972
77.886333 111.757 59.4185
78.450730 111.747 60.5664
79.019216 111.735 61.7389
79.591822 111.722 62.9306
80.168577 111.708 64.1367
80.749512 111.695 65.3553
81.334656 111.682 66.5868
81.924040 111.668 67.8316
82.517696 111.652 69.0879
83.115653 111.635 70.3532
83.717943 111.619 71.6259
84.324598 111.603 72.9071
84.935649 111.588 74.1989
85.551128 111.575 75.5031
86.171066 111.561 76.8190
86.795497 111.546 78.1448
87.424453 111.528 79.4795
88.057967 111.508 80.8232
88.696071 111.487 82.1761
89.338800 111.465 83.5386
89.986185 111.444 84.9117
90.638262 111.422 86.2973
91.295065 111.399 87.6965
91.956626 111.377 89.1081
92.622982 111.355 90.5305
93.294166 111.333 91.9637
93.970214 111.311 93.4097
94.651161 111.289 94.8699
95.337042 111.266 96.3446
96.027894 111.243 97.8324
96.723752 111.218 99.3323
97.424652 111.192 100.8450
98.130631 111.164 102.3733
98.841726 111.134 103.9204
99.557974 111.103 105.4884
100.279412 111.073 107.0770
101.006078 111.043 108.6833
101.738010 111.013 110.3033
102.475245 110.984 111.9337
103.217823 110.955 113.5727
103.965782 110.926 115.2198
104.719161 110.896 116.8770
105.477999 110.866 118.5479
106.242336 110.836 120.2360
107.012212 110.805 121.9426
107.787666 110.774 123.6661
108.568740 110.742 125.4039
109.355474 110.709 127.1548
110.147909 110.676 128.9200
110.946086 110.641 130.7018
111.750047 110.606 132.5023
112.559834 110.571 134.3217
113.375489 110.535 136.1593
114.197055 110.498 138.0148
115.024574 110.460 139.8892
115.858089 110.421 141.7846
116.697645 110.381 143.7032
117.543284 110.341 145.6451
118.395051 110.300 147.6072
119.252990 110.260 149.5829
120.117147 110.221 151.5668
120.987565 110.184 153.5573
121.864291 110.147 155.5581
122.747370 110.113 157.5766
123.636848 110.079 159.6239
124.532771 110.046 161.7156
125.435187 110.012 163.8684
126.344142 109.976 166.0913
127.259684 109.939 168.3756
128.181860 109.901 170.6994
129.110718 109.864 173.0467
130.046308 109.828 175.4179
130.988677 109.792 177.8217
131.937875 109.759 -179.7368
132.893951 109.729 -177.2589
133.856956 109.706 -174.7487
134.826938 109.689 -172.2135
135.803950 109.681 -169.6643
136.788041 109.682 -167.1117
137.779264 109.690 -164.5651
138.777669 109.706 -162.0346
139.783309 109.728 -159.5296
140.796237 109.756 -157.0578
141.816504 109.787 -154.6240
142.844165 109.820 -152.2294
143.879273 109.853 -149.8705
144.921881 109.885 -147.5414
145.972045 109.915 -145.2371
147.029819 109.942 -142.9525
148.095257 109.966 -140.6807
149.168417 109.985 -138.4118
150.249353 110.001 -136.1351
151.338121 110.012 -133.8425
152.434780 110.021 -131.5306
153.539385 110.027 -129.1999
154.651995 110.032 -126.8526
155.772667 110.034 -124.4901
156.901460 110.035 -122.1122
158.038432 110.035 -119.7180
159.183644 110.033 -117.3073
160.337154 110.032 -114.8805
161.499023 110.029 -112.4389
162.669312 110.027 -109.9829
163.848081 110.024 -107.5121
165.035392 110.021 -105.0251
166.231306 110.018 -102.5200
167.435887 110.015 -99.9963
168.649196 110.012 -97.4557
169.871298 110.009 -94.9018
171.102255 110.005 -92.3383
172.342133 110.001 -89.7652
173.590995 109.996 -87.1783
174.848907 109.990 -84.5724
176.115934 109.984 -81.9465
177.392143 109.977 -79.3022
178.677599 109.970 -76.6411
179.972371 109.963 -73.9637
181.276525 109.956 -71.2703
182.590129 109.948 -68.5616
183.913252 109.940 -65.8389
185.245964 109.932 -63.1034
186.588332 109.923 -60.3549
187.940428 109.913 -57.5927
189.302322 109.903 -54.8163
190.674085 109.893 -52.0255
192.055788 109.881 -49.2196
193.447503 109.870 -46.3977
194.849303 109.858 -43.5588
196.261262 109.846 -40.7023
197.683452 109.834 -37.8280
199.115948 109.822 -34.9349
200.558824 109.810 -32.0213
202.012156 109.797 -29.0864
203.476019 109.784 -26.1302
204.950490 109.770 -23.1537
206.435646 109.755 -20.1572
207.931564 109.740 -17.1411
209.438322 109.724 -14.1055
210.955998 109.708 -11.0503
212.484672 109.691 -7.9761
214.024424 109.673 -4.8845
215.575333 109.656 -1.7782
217.137481 109.638 1.3405
218.710948 109.621 4.4724
220.295818 109.604 7.6206
221.892172 109.586 10.7879
223.500094 109.568 13.9762
225.119668 109.550 17.1862
226.750978 109.531 20.4181
228.394109 109.511 23.6732
230.049147 109.492 26.9532
231.716178 109.471 30.2593
233.395289 109.451 33.5906
235.086567 109.431 36.9448
236.790102 109.411 40.3198
238.505980 109.392 43.7137
240.234293 109.372 47.1255
241.975130 109.353 50.5552
243.728581 109.333 54.0032
245.494739 109.315 57.4694
247.273695 109.296 60.9529
249.065542 109.277 64.4543
250.870374 109.256 67.9758
252.688284 109.234 71.5200
254.519367 109.212 75.0887
256.363720 109.189 78.6816
258.221437 109.167 82.2977
260.092616 109.145 85.9364
261.977354 109.123 89.5975
263.875750 109.101 93.2812
265.787903 109.080 96.9877
267.713911 109.058 100.7167
269.653877 109.037 104.4672
271.607900 109.014 108.2383
273.576083 108.991 112.0303
275.558528 108.967 115.8444
277.555338 108.943 119.6819
279.566619 108.918 123.5447
281.592474 108.893 127.4330
283.633009 108.868 131.3461
285.688331 108.844 135.2827
287.758546 108.819 139.2421
289.843763 108.795 143.2246
291.944090 108.772 147.2308
294.059638 108.749 151.2605
296.190515 108.725 155.3126
298.336833 108.702 159.3853
300.498705 108.678 163.4784
302.676243 108.654 167.5930
304.869559 108.630 171.7319
307.078770 108.605 175.8978
309.303989 108.582 -179.9081
311.545334 108.558 -175.6866
313.802919 108.535 -171.4395
316.076865 108.511 -167.1680
318.367288 108.488 -162.8722
320.674309 108.464 -158.5524
322.998047 108.441 -154.2086
325.338624 108.417 -149.8405
327.696162 108.393 -145.4477
330.070783 108.368 -141.0292
332.462612 108.343 -136.5842
334.871773 108.318 -132.1120
337.298392 108.293 -127.6118
339.742595 108.267 -123.0829
342.204510 108.241 -118.5259
344.684265 108.216 -113.9422
347.181989 108.190 -109.3359
349.697813 108.165 -104.7103
352.231868 108.140 -100.0660
354.784285 108.116 -95.4000
357.355198 108.091 -90.7083
359.944741 108.066 -85.9893
362.553049 108.041 -81.2429
365.180258 108.015 -76.4700
367.826505 107.990 -71.6708
370.491927 107.965 -66.8445
373.176665 107.939 -61.9894
375.880856 107.913 -57.1044
378.604644 107.887 -52.1891
381.348169 107.862 -47.2449
384.111575 107.836 -42.2726
386.895006 107.810 -37.2731
389.698607 107.784 -32.2463
392.522524 107.758 -27.1914
395.366904 107.732 -22.1078
398.231895 107.705 -16.9959
401.117648 107.679 -11.8561
404.024312 107.653 -6.6888
406.952038 107.626 -1.4932
409.900981 107.599 3.7308
412.871292 107.572 8.9828
415.863128 107.545 14.2625
418.876643 107.518 19.5706
421.911996 107.491 24.9081
424.969344 107.464 30.2751
428.048847 107.436 35.6716
431.150666 107.409 41.0977
434.274961 107.381 46.5532
437.421897 107.353 52.0383
440.591636 107.324 57.5535
443.784345 107.296 63.0994
447.000189 107.267 68.6758
450.239337 107.238 74.2815
453.501956 107.209 79.9154
456.788219 107.180 85.5785
460.098294 107.152 91.2731
463.432356 107.124 97.0020
466.790578 107.095 102.7673
470.173135 107.065 108.5696
473.580203 107.035 114.4080
477.011961 107.004 120.2801
480.468586 106.973 126.1842
483.950259 106.942 132.1187
487.457163 106.911 138.0830
490.989478 106.880 144.0775
494.547390 106.848 150.1030
498.131084 106.816 156.1609
501.740748 106.784 162.2535
505.376568 106.752 168.3826
509.038735 106.720 174.5481
512.727439 106.688 -179.2505
516.442874 106.656 -173.0146
520.185232 106.624 -166.7446
523.954708 106.592 -160.4399
527.751500 106.559 -154.0999
531.575805 106.526 -147.7239
535.427822 106.493 -141.3118
539.307753 106.459 -134.8630
543.215800 106.425 -128.3772
547.152165 106.391 -121.8518
551.117055 106.357 -115.2853
555.110677 106.323 -108.6774
559.133237 106.288 -102.0293
563.184947 106.254 -95.3430
567.266018 106.219 -88.6190
571.376661 106.185 -81.8569
575.517092 106.150 -75.0564
579.687526 106.116 -68.2168
583.888181 106.082 -61.3376
588.119275 106.048 -54.4186
592.381030 106.014 -47.4592
596.673667 105.980 -40.4594
600.997410 105.947 -33.4191
605.352485 105.914 -26.3384
609.739119 105.882 -19.2168
614.157540 105.850 -12.0533
618.607979 105.818 -4.8468
623.090667 105.786 2.4036
627.605839 105.755 9.6976
632.153730 105.724 17.0344
636.734576 105.694 24.4135
641.348617 105.665 31.8342
645.996094 105.635 39.2959
650.677248 105.606 46.7982
655.392323 105.577 54.3424
660.141566 105.548 61.9307
664.925224 105.520 69.5642
669.743546 105.493 77.2432
674.596784 105.467 84.9669
679.485191 105.442 92.7351
684.409020 105.418 100.5476
689.368530 105.395 108.4042
694.363979 105.374 116.3043
699.395626 105.353 124.2477
704.463736 105.334 132.2339
709.568570 105.315 140.2634
714.710396 105.297 148.3372
719.889483 105.280 156.4553
725.106099 105.264 164.6183
730.360516 105.249 172.8257
735.653010 105.234 -178.9221
740.983855 105.221 -170.6243
746.353329 105.209 -162.2792
751.761713 105.198 -153.8857
757.209288 105.189 -145.4445
762.696339 105.182 -136.9569
768.223151 105.176 -128.4252
773.790013 105.172 -119.8503
779.397214 105.170 -111.2329
785.045047 105.170 -102.5725
790.733808 105.172 -93.8685
796.463791 105.176 -85.1207
802.235296 105.182 -76.3296
808.048623 105.189 -67.4954
813.904077 105.199 -58.6188
819.801961 105.210 -49.7001
825.742584 105.223 -40.7395
831.726255 105.239 -31.7365
837.753287 105.256 -22.6909
843.823992 105.275 -13.6035
849.938689 105.297 -4.4756
856.097695 105.321 4.6915
862.301332 105.347 13.8966
868.549922 105.375 23.1393
874.843793 105.405 32.4191
881.183272 105.438 41.7363
887.568689 105.472 51.0909
894.000378 105.509 60.4829
900.478673 105.547 69.9113
907.003913 105.588 79.3749
913.576437 105.631 88.8733
920.196588 105.676 98.4066
926.864712 105.722 107.9761
933.581156 105.771 117.5820
940.346270 105.823 127.2218
947.160407 105.876 136.8911
954.023921 105.933 146.5867
960.937172 105.991 156.3076
967.900519 106.050 166.0542
974.914325 106.111 175.8273
981.978956 106.173 -174.3727
989.094780 106.236 -164.5459
996.262169 106.300 -154.6925
1003.481495 106.365 -144.8130
1010.753136 106.430 -134.9078
1018.077470 106.496 -124.9774
1025.454879 106.562 -115.0222
1032.885748 106.628 -105.0417
1040.370463 106.694 -95.0345
1047.909417 106.760 -84.9987
1055.503000 106.827 -74.9336
1063.151610 106.893 -64.8409
1070.855645 106.958 -54.7220
1078.615506 107.023 -44.5768
1086.431599 107.086 -34.4044
1094.304330 107.148 -24.2032
1102.234110 107.209 -13.9717
1110.221353 107.268 -3.7078
1118.266475 107.325 6.5909
1126.369895 107.380 16.9265
1134.532035 107.434 27.3007
1142.753322 107.486 37.7140
1151.034184 107.537 48.1653
1159.375052 107.586 58.6542
1167.776361 107.633 69.1821
1176.238550 107.679 79.7515
1184.762060 107.723 90.3662
1193.347334 107.765 101.0278
1201.994821 107.805 111.7383
1210.704971 107.843 122.4993
1219.478238 107.879 133.3135
1228.315080 107.913 144.1836
1237.215957 107.945 155.1104
1246.181334 107.977 166.0933
1255.211678 108.007 177.1304
1264.307459 108.036 -171.7793
1273.469152 108.064 -160.6343
1282.697235 108.092 -149.4316
1291.992188 108.119 -138.1689
1301.354495 108.145 -126.8447
1310.784647 108.170 -115.4580
1320.283132 108.196 -104.0081
1329.850448 108.221 -92.4958
1339.487093 108.246 -80.9224
1349.193569 108.272 -69.2893
1358.970381 108.297 -57.5969
1368.818041 108.323 -45.8445
1378.737061 108.350 -34.0300
1388.727958 108.377 -22.1548
1398.791253 108.406 -10.2188
1408.927471 108.435 1.7771
1419.137140 108.465 13.8320
1429.420793 108.496 25.9463
1439.778965 108.529 38.1191
1450.212197 108.563 50.3521
1460.721033 108.599 62.6438
1471.306019 108.637 74.9929
1481.967709 108.677 87.3979
1492.706658 108.718 99.8586
1503.523426 108.761 112.3738
1514.418576 108.806 124.9431
1525.392678 108.853 137.5652
1536.446302 108.901 150.2385
1547.580025 108.951 162.9612
1558.794428 109.003 175.7329
1570.090095 109.056 -171.4460
1581.467615 109.111 -158.5747
1592.927581 109.168 -145.6528
1604.470591 109.227 -132.6807
1616.097246 109.287 -119.6580
1627.808153 109.350 -106.5847
1639.603922 109.414 -93.4609
1651.485168 109.481 -80.2876
1663.452510 109.550 -67.0669
1675.506573 109.621 -53.7998
1687.647984 109.694 -40.4873
1699.877377 109.769 -27.1296
1712.195390 109.847 -13.7283
1724.602663 109.926 -0.2847
1737.099845 110.008 13.1978
1749.687587 110.091 26.7156
1762.366544 110.177 40.2654
1775.137379 110.264 53.8438
1788.000756 110.352 67.4500
1800.957346 110.441 81.0842
1814.007826 110.530 94.7485
1827.152874 110.620 108.4453
1840.393177 110.710 122.1772
1853.729425 110.800 135.9463
1867.162312 110.890 149.7534
1880.692540 110.979 163.5999
1894.320813 111.069 177.4863
1908.047843 111.159 -168.5867
1921.874344 111.248 -154.6196
1935.801038 111.338 -140.6130
1949.828650 111.427 -126.5667
1963.957912 111.517 -112.4805
1978.189561 111.606 -98.3547
1992.524338 111.695 -84.1899
2006.962991 111.783 -69.9851
2021.506272 111.871 -55.7385
2036.154940 111.959 -41.4487
2050.909758 112.046 -27.1155
2065.771495 112.134 -12.7385
2080.740927 112.221 1.6799
2095.818833 112.307 16.1384
2111.006001 112.394 30.6348
2126.303220 112.480 45.1670
2141.711290 112.566 59.7339
2157.231013 112.651 74.3350
2172.863198 112.736 88.9695
2188.608660 112.819 103.6382
2204.468221 112.902 118.3416
2220.442706 112.983 133.0808
2236.532950 113.062 147.8584
2252.739789 113.140 162.6763
2269.064070 113.216 177.5366
2285.506644 113.291 -167.5581
2302.068367 113.363 -152.6079
2318.750104 113.435 -137.6111
2335.552723 113.505 -122.5674
2352.477101 113.573 -107.4761
2369.524119 113.641 -92.3372
2386.694668 113.707 -77.1501
2403.989641 113.772 -61.9160
2421.409941 113.836 -46.6362
2438.956476 113.898 -31.3135
2456.630160 113.960 -15.9500
2474.431915 114.020 -0.5481
2492.362668 114.078 14.8904
2510.423356 114.134 30.3660
2528.614918 114.188 45.8779
2546.938304 114.240 61.4290
2565.394469 114.290 77.0203
2583.984375 114.336 92.6543
2602.708991 114.380 108.3342
2621.569293 114.421 124.0632
2640.566265 114.460 139.8445
2659.700897 114.495 155.6804
2678.974186 114.529 171.5720
2698.387137 114.560 -172.4795
2717.940763 114.588 -156.4734
2737.636082 114.614 -140.4097
2757.474121 114.638 -124.2871
2777.455915 114.661 -108.1067
2797.582506 114.681 -91.8684
2817.854942 114.699 -75.5735
2838.274281 114.716 -59.2195
2858.841586 114.731 -42.8005
2879.557931 114.745 -26.3083
2900.424394 114.757 -9.7354
2921.442065 114.769 6.9214
2942.612039 114.781 23.6575
2963.935418 114.794 40.4624
2985.413316 114.809 57.3218
3007.046852 114.825 74.2207
3028.837153 114.842 91.1482
3050.785356 114.859 108.0979
3072.892604 114.876 125.0671
3095.160050 114.892 142.0557
3117.588856 114.906 159.0652
3140.180190 114.918 176.0994
3162.935230 114.927 -166.8354
3185.855163 114.933 -149.7312
3208.941182 114.936 -132.5796
3232.194493 114.936 -115.3745
3255.616307 114.934 -98.1121
3279.207844 114.929 -80.7917
3302.970336 114.923 -63.4136
3326.905021 114.915 -45.9778
3351.013146 114.905 -28.4839
3375.295969 114.894 -10.9326
3399.754755 114.882 6.6768
3424.390779 114.868 24.3447
3449.205326 114.854 42.0698
3474.199690 114.838 59.8521
3499.375173 114.822 77.6904
3524.733088 114.805 95.5850
3550.274757 114.787 113.5352
3576.001511 114.768 131.5410
3601.914692 114.750 149.6025
3628.015651 114.731 167.7178
3654.305748 114.712 -174.1133
3680.786354 114.693 -155.8926
3707.458849 114.674 -137.6211
3734.324624 114.655 -119.3003
3761.385080 114.637 -100.9326
3788.641627 114.619 -82.5205
3816.095686 114.602 -64.0684
3843.748688 114.585 -45.5786
3871.602076 114.568 -27.0552
3899.657300 114.551 -8.5000
3927.915825 114.534 10.0859
3956.379122 114.518 28.7017
3985.048676 114.501 47.3457
4013.925981 114.484 66.0176
4043.012544 114.466 84.7183
4072.309879 114.447 103.4468
4101.819515 114.428 122.2031
4131.542990 114.408 140.9888
4161.481854 114.387 159.8022
4191.637667 114.365 178.6436
4222.012001 114.341 -162.4888
4252.606441 114.317 -143.5977
4283.422580 114.291 -124.6875
4314.462026 114.263 -105.7632
4345.726396 114.233 -86.8252
4377.217321 114.201 -67.8696
4408.936442 114.166 -48.8887
4440.885413 114.127 -29.8760
4473.065899 114.086 -10.8286
4505.479579 114.043 8.2559
4538.128141 113.996 27.3789
4571.013288 113.948 46.5444
4604.136735 113.898 65.7549
4637.500207 113.846 85.0127
4671.105446 113.793 104.3159
4704.954201 113.739 123.6587
4739.048239 113.684 143.0332
4773.389336 113.628 162.4312
4807.979283 113.571 -178.1592
4842.819883 113.513 -158.7485
4877.912952 113.452 -139.3457
4913.260320 113.389 -119.9580
4948.863830 113.322 -100.5879
4984.725337 113.250 -81.2363
5020.846712 113.174 -61.9009
5057.229836 113.091 -42.5767
5093.876609 113.001 -23.2578
5130.788938 112.904 -3.9341
5167.968750 112.799 15.4043
5205.417982 112.685 34.7690
5243.138586 112.562 54.1738
5281.132530 112.431 73.6338
5319.401793 112.292 93.1675
5357.948371 112.145 112.7935
5396.774274 111.991 132.5278
5435.881525 111.830 152.3862
5475.272163 111.665 172.3818
5514.948243 111.497 -167.4741
5554.911831 111.328 -147.1729
5595.165012 111.159 -126.7075
5635.709884 110.993 -106.0747
5676.548561 110.831 -85.2729
5717.683172 110.677 -64.3032
5759.115861 110.531 -43.1709
5800.848789 110.398 -21.8862
5842.884130 110.277 -0.4629
5885.224077 110.173 21.0801
5927.870837 110.085 42.7212
5970.826633 110.016 64.4370
6014.093704 109.966 86.2026
6057.674306 109.936 107.9902
6101.570711 109.926 129.7710
6145.785208 109.936 151.5171
6190.320101 109.964 173.2021
6235.177712 110.010 -165.1992
6280.360380 110.073 -143.7124
6325.870460 110.151 -122.3604
6371.710325 110.242 -101.1646
6417.882365 110.345 -80.1421
6464.388986 110.456 -59.3057
6511.232613 110.574 -38.6606
6558.415689 110.696 -18.2065
6605.940673 110.820 2.0610
6653.810042 110.945 22.1504
6702.026292 111.068 42.0762
6750.591937 111.188 61.8579
6799.509509 111.304 81.5190
6848.781558 111.415 101.0869
6898.410653 111.523 120.5889
6948.399380 111.626 140.0532
6998.750346 111.727 159.5044
7049.466176 111.826 178.9609
7100.549514 111.927 -161.5684
7152.003023 112.030 -142.0825
7203.829385 112.137 -122.5859
7256.031302 112.251 -103.0879
7308.611496 112.374 -83.5981
7361.572708 112.507 -64.1299
7414.917698 112.653 -44.7056
7468.649249 112.811 -25.3618
7522.770160 112.984 -6.1548
7577.283253 113.170 12.8418
7632.191371 113.368 31.5352
7687.497376 113.574 49.8184
7743.204151 113.782 67.5815
7799.314600 113.987 84.7222
7855.831649 114.178 101.1606
7912.758244 114.344 116.8530
7970.097352 114.474 131.7979
8027.851962 114.555 146.0420
8086.025087 114.575 159.6777
8144.619758 114.522 172.8359
8203.639030 114.390 -174.3223
8263.085980 114.173 -161.6157
8322.963708 113.870 -148.8530
8383.275334 113.483 -135.8438
8444.024002 113.018 -122.4102
8505.212881 112.485 -108.3965
8566.845160 111.895 -93.6807
8628.924051 111.260 -78.1802
8691.452792 110.594 -61.8574
8754.434642 109.910 -44.7197
8817.872884 109.221 -26.8193
8881.770826 108.536 -8.2456
8946.131799 107.865 10.8804
9010.959157 107.217 30.4194
9076.256282 106.596 50.2246
9142.026576 106.005 70.1616
9208.273470 105.445 90.1294
9275.000415 104.916 110.0713
9342.210891 104.417 129.9736
9409.908403 103.947 149.8501
9478.096478 103.505 169.7231
9546.778672 103.090 -170.3911
9615.958566 102.704 -150.4873
9685.639765 102.345 -130.5703
9755.825904 102.014 -110.6523
9826.520640 101.711 -90.7495
9897.727659 101.437 -70.8799
9969.450674 101.192 -51.0630
10041.693423 100.977 -31.3179
10114.459673 100.790 -11.6577
10187.753217 100.632 7.9072
10261.577877 100.504 27.3735
10335.937500 100.405 46.7402
10410.835964 100.338 66.0073
10486.277173 100.303 85.1709
10562.265060 100.301 104.2227
10638.803587 100.334 123.1465
10715.896743 100.402 141.9209
10793.548548 100.507 160.5190
10871.763050 100.649 178.9116
10950.544327 100.828 -162.9287
11029.896485 101.044 -145.0288
11109.823662 101.296 -127.4204
11190.330024 101.585 -110.1450
11271.419768 101.909 -93.2593
11353.097122 102.265 -76.8335
11435.366344 102.649 -60.9468
11518.231722 103.055 -45.6743
11601.697577 103.476 -31.0742
11685.768261 103.905 -17.1694
11770.448155 104.331 -3.9409
11855.741674 104.747 8.6821
11941.653265 105.149 20.8179
12028.187408 105.534 32.6206
12115.348612 105.907 44.2573
12203.141422 106.275 55.8784
12291.570415 106.654 67.5762
12380.640201 107.059 79.3486
12470.355424 107.503 91.0747
12560.720760 107.997 102.5264
12651.740920 108.541 113.4141
12743.420650 109.129 123.4556
12835.764729 109.744 132.4302
12928.777972 110.367 140.2100
13022.465227 110.971 146.7603
13116.831378 111.530 152.1260
13211.881345 112.020 156.4180
13307.620084 112.417 159.7954
13404.052584 112.705 162.4541
13501.183875 112.870 164.6108
13599.019019 112.909 166.4883
13697.563116 112.822 168.3052
13796.821305 112.618 170.2681
13896.798760 112.309 172.5664
13997.500692 111.917 175.3638
14098.932352 111.468 178.7812
14201.099028 110.993 -177.1211
14304.006046 110.525 -172.3696
14407.658770 110.098 -167.0894
14512.062604 109.741 -161.4893
14617.222992 109.476 -155.8271
14723.145416 109.315 -150.3687
14829.835397 109.265 -145.3618
14937.298497 109.325 -141.0337
15045.540320 109.489 -137.5967
15154.566507 109.742 -135.2432
15264.382743 110.056 -134.1343
15374.994752 110.397 -134.3809
15486.408302 110.719 -136.0234
15598.629201 110.972 -139.0186
15711.663298 111.107 -143.2271
15825.516487 111.080 -148.4160
15940.194703 110.856 -154.2725
16055.703925 110.421 -160.4390
16172.050174 109.775 -166.5649
16289.239516 108.935 -172.3516
16407.278061 107.927 -177.5815
16526.171961 106.786 177.8750
16645.927415 105.545 174.0659
16766.550667 104.241 170.9712
16888.048005 102.906 168.5166
17010.425762 101.572 166.5894
17133.690320 100.264 165.0552
17257.848103 99.003 163.7729
17382.905584 97.806 162.6074
17508.869284 96.681 161.4380
17635.745768 95.634 160.1646
17763.541652 94.666 158.7070
17892.263597 93.776 157.0054
18021.918315 92.959 155.0142
18152.512564 92.214 152.6997
18284.053153 91.537 150.0366
18416.546939 90.926 147.0034
18550.000830 90.381 143.5815
18684.421783 89.902 139.7500
18819.816805 89.492 135.4897
18956.192956 89.156 130.7886
19093.557344 88.896 125.6558
19231.917131 88.711 120.1514
19371.279531 88.598 114.4253
19511.651807 88.546 108.7651
19653.041280 88.538 103.6270
19795.455318 88.551 99.6157
19938.901348 88.565 97.3784
