* Measurement data measured by REW V5.31.3
* Source: Input device not selected, no input selected, L, volume: no control
* Format: 256k Log Swept Sine, 1 sweep at -20,0 dBFS with no timing reference
* Dated: 02.02.2025 18:43:31
* REW Settings:
*  C-weighting compensation: Off
*  Target level: 75.0 dB
* Note: 
* Measurement: bio open
* Smoothing: 1/12 octave
* Frequency Step: 96 ppo
* Start Frequency: 20.141602 Hz
*
* Freq(Hz) SPL(dB) Phase(degrees)
20.141602 79.729 -75.0724
20.287556 79.783 -75.1369
20.434568 79.861 -75.2437
20.582645 79.954 -75.3961
20.731796 80.050 -75.5936
20.882027 80.143 -75.8301
21.033346 80.224 -76.0947
21.185763 80.288 -76.3726
21.339284 80.333 -76.6474
21.493917 80.359 -76.9037
21.649671 80.367 -77.1290
21.806553 80.361 -77.3157
21.964572 80.345 -77.4622
22.123737 80.326 -77.5732
22.284054 80.309 -77.6595
22.445534 80.302 -77.7363
22.608183 80.310 -77.8211
22.772012 80.337 -77.9309
22.937027 80.388 -78.0801
23.103238 80.464 -78.2781
23.270654 80.564 -78.5286
23.439282 80.687 -78.8293
23.609133 80.829 -79.1732
23.780215 80.986 -79.5498
23.952536 81.153 -79.9466
24.126106 81.322 -80.3506
24.300934 81.488 -80.7485
24.477028 81.645 -81.1272
24.654399 81.787 -81.4739
24.833055 81.910 -81.7756
25.013005 82.011 -82.0196
25.194260 82.088 -82.1941
25.376828 82.143 -82.2893
25.560719 82.177 -82.2997
25.745942 82.194 -82.2256
25.932508 82.201 -82.0756
26.120426 82.203 -81.8674
26.309705 82.207 -81.6272
26.500356 82.217 -81.3868
26.692388 82.236 -81.1794
26.885812 82.265 -81.0337
27.080638 82.304 -80.9688
27.276876 82.350 -80.9911
27.474535 82.399 -81.0933
27.673627 82.449 -81.2577
27.874161 82.498 -81.4607
28.076149 82.545 -81.6788
28.279600 82.592 -81.8945
28.484526 82.639 -82.1000
28.690937 82.690 -82.2984
28.898843 82.744 -82.5017
29.108256 82.803 -82.7251
29.319186 82.865 -82.9807
29.531645 82.929 -83.2719
29.745644 82.993 -83.5898
29.961193 83.055 -83.9141
30.178304 83.117 -84.2177
30.396989 83.179 -84.4744
30.617258 83.246 -84.6664
30.839123 83.318 -84.7912
31.062596 83.398 -84.8631
31.287688 83.484 -84.9103
31.514412 83.571 -84.9663
31.742778 83.654 -85.0614
31.972800 83.726 -85.2143
32.204488 83.783 -85.4298
32.437855 83.823 -85.7008
32.672913 83.849 -86.0150
32.909674 83.868 -86.3628
33.148151 83.892 -86.7434
33.388356 83.930 -87.1661
33.630302 83.991 -87.6452
33.874001 84.077 -88.1898
34.119466 84.186 -88.7924
34.366710 84.310 -89.4220
34.615745 84.437 -90.0260
34.866585 84.558 -90.5393
35.119243 84.664 -90.8996
35.373731 84.751 -91.0615
35.630064 84.816 -91.0075
35.888254 84.858 -90.7518
36.148315 84.879 -90.3353
36.410261 84.881 -89.8145
36.674104 84.866 -89.2472
36.939860 84.838 -88.6823
37.207542 84.805 -88.1551
37.477163 84.778 -87.6903
37.748738 84.768 -87.3075
38.022281 84.784 -87.0260
38.297806 84.831 -86.8635
38.575327 84.905 -86.8284
38.854860 84.994 -86.9120
39.136419 85.085 -87.0851
39.420017 85.164 -87.3035
39.705671 85.225 -87.5210
39.993395 85.268 -87.7069
40.283203 85.300 -87.8594
40.575112 85.335 -88.0109
40.869136 85.387 -88.2178
41.165290 85.465 -88.5349
41.463591 85.569 -88.9854
41.764053 85.693 -89.5407
42.066693 85.825 -90.1222
42.371525 85.953 -90.6252
42.678567 86.067 -90.9572
42.987834 86.163 -91.0723
43.299341 86.240 -90.9894
43.613106 86.302 -90.7881
43.929145 86.352 -90.5822
44.247473 86.398 -90.4810
44.568109 86.449 -90.5531
44.891068 86.517 -90.8056
45.216367 86.612 -91.1814
45.544023 86.737 -91.5705
45.874054 86.882 -91.8263
46.206476 87.025 -91.7819
46.541307 87.142 -91.2681
46.878565 87.218 -90.1442
47.218266 87.251 -88.3553
47.560429 87.260 -86.0161
47.905072 87.273 -83.4750
48.252212 87.312 -81.2729
48.601867 87.379 -79.9647
48.954056 87.460 -79.9004
49.308798 87.533 -81.1059
49.666109 87.585 -83.3018
50.026010 87.619 -86.0125
50.388520 87.647 -88.7198
50.753656 87.684 -91.0143
51.121437 87.737 -92.6926
51.491884 87.804 -93.7598
51.865016 87.874 -94.3589
52.240851 87.938 -94.6815
52.619410 87.997 -94.9049
53.000712 88.057 -95.1592
53.384777 88.124 -95.5093
53.771625 88.201 -95.9444
54.161276 88.283 -96.3864
54.553751 88.363 -96.7293
54.949070 88.435 -96.8955
55.347254 88.498 -96.8805
55.748323 88.552 -96.7551
56.152298 88.597 -96.6251
56.559201 88.635 -96.5719
56.969052 88.671 -96.6170
57.381873 88.712 -96.7268
57.797686 88.769 -96.8480
58.216512 88.846 -96.9439
58.638373 88.939 -97.0096
59.063291 89.039 -97.0637
59.491288 89.133 -97.1308
59.922386 89.212 -97.2290
60.356608 89.275 -97.3645
60.793977 89.324 -97.5314
61.234515 89.370 -97.7143
61.678246 89.420 -97.8949
62.125192 89.481 -98.0591
62.575377 89.555 -98.2018
63.028824 89.640 -98.3269
63.485557 89.731 -98.4439
63.945599 89.823 -98.5642
64.408975 89.910 -98.6989
64.875709 89.989 -98.8573
65.345825 90.060 -99.0445
65.819348 90.123 -99.2609
66.296302 90.182 -99.5043
66.776713 90.241 -99.7709
67.260604 90.301 -100.0533
67.748002 90.363 -100.3356
68.238932 90.427 -100.5934
68.733420 90.490 -100.8031
69.231490 90.555 -100.9567
69.733170 90.622 -101.0714
70.238485 90.693 -101.1827
70.747463 90.766 -101.3246
71.260128 90.841 -101.5097
71.776508 90.915 -101.7270
72.296630 90.990 -101.9565
72.820521 91.064 -102.1864
73.348209 91.137 -102.4156
73.879720 91.206 -102.6421
74.415083 91.269 -102.8532
74.954326 91.329 -103.0300
75.497475 91.389 -103.1612
76.044561 91.452 -103.2498
76.595612 91.520 -103.3083
77.150655 91.591 -103.3523
77.709720 91.665 -103.3996
78.272837 91.742 -103.4690
78.840034 91.819 -103.5764
79.411342 91.897 -103.7273
79.986789 91.973 -103.9147
80.566406 92.045 -104.1232
81.150224 92.113 -104.3409
81.738272 92.179 -104.5712
82.330581 92.247 -104.8374
82.927182 92.319 -105.1664
83.528107 92.394 -105.5636
84.133386 92.473 -106.0018
84.743051 92.551 -106.4337
85.357134 92.629 -106.8154
85.975667 92.705 -107.1238
86.598682 92.779 -107.3621
87.226212 92.853 -107.5522
87.858289 92.927 -107.7184
88.494946 93.003 -107.8748
89.136217 93.084 -108.0269
89.782135 93.166 -108.1790
90.432733 93.249 -108.3357
91.088046 93.328 -108.5007
91.748108 93.406 -108.6812
92.412952 93.484 -108.8912
93.082615 93.563 -109.1421
93.757130 93.644 -109.4326
94.436533 93.724 -109.7503
95.120859 93.803 -110.0833
95.810144 93.880 -110.4240
96.504423 93.955 -110.7641
97.203734 94.029 -111.0923
97.908112 94.103 -111.4017
98.617595 94.177 -111.6975
99.332219 94.251 -111.9946
100.052021 94.324 -112.3092
100.777039 94.396 -112.6509
101.507311 94.466 -113.0171
102.242875 94.533 -113.3936
102.983769 94.598 -113.7616
103.730032 94.662 -114.1088
104.481702 94.727 -114.4336
105.238820 94.792 -114.7402
106.001424 94.861 -115.0339
106.769554 94.935 -115.3212
107.543250 95.015 -115.6118
108.322553 95.101 -115.9163
109.107503 95.187 -116.2397
109.898141 95.271 -116.5804
110.694508 95.352 -116.9340
111.496646 95.429 -117.2962
112.304596 95.505 -117.6650
113.118402 95.580 -118.0410
113.938104 95.654 -118.4285
114.763747 95.729 -118.8327
115.595372 95.803 -119.2577
116.433024 95.878 -119.7050
117.276746 95.954 -120.1724
118.126581 96.031 -120.6529
118.982575 96.107 -121.1363
119.844772 96.182 -121.6134
120.713217 96.253 -122.0797
121.587954 96.319 -122.5381
122.469031 96.382 -122.9977
123.356492 96.443 -123.4677
124.250384 96.504 -123.9529
125.150753 96.566 -124.4551
126.057647 96.628 -124.9730
126.971113 96.692 -125.4985
127.891198 96.759 -126.0190
128.817950 96.829 -126.5257
129.751418 96.899 -127.0205
130.691651 96.969 -127.5147
131.638696 97.038 -128.0226
132.592604 97.105 -128.5540
133.553425 97.172 -129.1086
134.521208 97.237 -129.6773
135.496004 97.303 -130.2509
136.477864 97.369 -130.8238
137.466839 97.437 -131.3939
138.462981 97.504 -131.9605
139.466340 97.571 -132.5253
140.476971 97.638 -133.0913
141.494925 97.704 -133.6586
142.520256 97.767 -134.2246
143.553016 97.825 -134.7946
144.593260 97.873 -135.3866
145.641043 97.912 -136.0189
146.696418 97.943 -136.6934
147.759441 97.972 -137.3965
148.830166 98.002 -138.1097
149.908651 98.036 -138.8187
150.994951 98.074 -139.5179
152.089123 98.114 -140.2069
153.191223 98.156 -140.8863
154.301310 98.195 -141.5571
155.419441 98.233 -142.2225
156.545674 98.268 -142.8883
157.680069 98.301 -143.5600
158.822683 98.333 -144.2402
159.973578 98.365 -144.9291
161.132813 98.394 -145.6271
162.300447 98.423 -146.3356
163.476543 98.449 -147.0559
164.661162 98.475 -147.7871
165.854364 98.499 -148.5249
167.056213 98.522 -149.2630
168.266772 98.541 -149.9987
169.486102 98.556 -150.7347
170.714268 98.568 -151.4768
171.951334 98.575 -152.2284
173.197364 98.579 -152.9885
174.452424 98.580 -153.7513
175.716578 98.577 -154.5083
176.989893 98.572 -155.2538
178.272434 98.564 -155.9874
179.564270 98.552 -156.7115
180.865467 98.537 -157.4259
182.176092 98.517 -158.1255
183.496216 98.493 -158.8021
184.825905 98.467 -159.4489
186.165229 98.439 -160.0636
187.514259 98.410 -160.6478
188.873065 98.381 -161.2065
190.241717 98.355 -161.7464
191.620287 98.330 -162.2726
193.008847 98.308 -162.7887
194.407468 98.287 -163.2968
195.816225 98.269 -163.7988
197.235190 98.251 -164.2976
198.664438 98.233 -164.7970
200.104042 98.214 -165.3005
201.554078 98.194 -165.8105
203.014622 98.174 -166.3285
204.485750 98.155 -166.8542
205.967538 98.137 -167.3863
207.460064 98.119 -167.9232
208.963405 98.099 -168.4648
210.477640 98.077 -169.0120
212.002848 98.053 -169.5637
213.539108 98.028 -170.1153
215.086500 98.000 -170.6602
216.645105 97.972 -171.1945
218.215005 97.942 -171.7188
219.796281 97.910 -172.2369
221.389015 97.878 -172.7516
222.993292 97.843 -173.2619
224.609193 97.808 -173.7635
226.236804 97.772 -174.2527
227.876209 97.734 -174.7298
229.527494 97.696 -175.1983
231.190745 97.655 -175.6645
232.866048 97.613 -176.1364
234.553491 97.569 -176.6187
236.253163 97.523 -177.1062
237.965150 97.475 -177.5860
239.689544 97.426 -178.0460
241.426433 97.377 -178.4797
243.175909 97.326 -178.8884
244.938062 97.274 -179.2805
246.712984 97.221 -179.6673
248.500768 97.168 179.9435
250.301507 97.117 179.5524
252.115295 97.066 179.1672
253.942226 97.017 178.7928
255.782396 96.967 178.4263
257.635901 96.916 178.0621
259.502837 96.862 177.6968
261.383301 96.806 177.3319
263.277392 96.746 176.9743
265.185209 96.683 176.6328
267.106850 96.618 176.3128
269.042417 96.551 176.0162
270.992009 96.483 175.7446
272.955729 96.414 175.5013
274.933678 96.346 175.2897
276.925961 96.280 175.1108
278.932681 96.216 174.9623
280.953942 96.156 174.8400
282.989850 96.101 174.7391
285.040511 96.054 174.6569
287.106032 96.017 174.5991
289.186521 95.995 174.5853
291.282086 95.989 174.6399
293.392836 95.999 174.7673
295.518881 96.015 174.9291
297.660333 96.020 175.0384
299.817302 95.994 174.9906
301.989902 95.926 174.7407
304.178245 95.826 174.3506
306.382446 95.713 173.9218
308.602620 95.606 173.5302
310.838882 95.512 173.2156
313.091348 95.432 172.9894
315.360137 95.364 172.8385
317.645367 95.305 172.7363
319.947156 95.252 172.6574
322.265625 95.203 172.5844
324.600895 95.158 172.5102
326.953086 95.114 172.4363
329.322323 95.070 172.3675
331.708729 95.024 172.3083
334.112427 94.974 172.2579
336.533543 94.920 172.2123
338.972204 94.864 172.1695
341.428536 94.809 172.1290
343.902668 94.756 172.0902
346.394729 94.705 172.0549
348.904848 94.658 172.0234
351.433156 94.611 171.9939
353.979786 94.566 171.9661
356.544869 94.524 171.9406
359.128540 94.487 171.9158
361.730934 94.456 171.8874
364.352185 94.429 171.8544
366.992431 94.405 171.8207
369.651810 94.381 171.7946
372.330459 94.353 171.7871
375.028519 94.319 171.8065
377.746130 94.277 171.8516
380.483434 94.229 171.9079
383.240574 94.177 171.9597
386.017693 94.123 172.0003
388.814937 94.068 172.0268
391.632450 94.013 172.0353
394.470380 93.956 172.0267
397.328875 93.899 172.0133
400.208084 93.845 172.0086
403.108157 93.797 172.0107
406.029245 93.755 172.0118
408.971500 93.721 172.0151
411.935076 93.693 172.0318
414.920127 93.669 172.0729
417.926810 93.644 172.1513
420.955280 93.616 172.2810
424.005695 93.580 172.4647
427.078215 93.538 172.6886
430.173000 93.490 172.9316
433.290211 93.438 173.1738
436.430010 93.384 173.3934
439.592562 93.331 173.5700
442.778031 93.281 173.6922
445.986583 93.235 173.7586
449.218386 93.192 173.7866
452.473607 93.148 173.8141
455.752418 93.103 173.8672
459.054987 93.058 173.9440
462.381489 93.015 174.0236
465.732096 92.976 174.0904
469.106983 92.943 174.1557
472.506325 92.918 174.2407
475.930301 92.901 174.3531
479.379088 92.892 174.4913
482.852867 92.889 174.6541
486.351817 92.889 174.8361
489.876123 92.890 175.0237
493.425968 92.888 175.2042
497.001536 92.881 175.3759
500.603014 92.868 175.5463
504.230589 92.850 175.7261
507.884452 92.831 175.9249
511.564792 92.812 176.1454
515.271802 92.795 176.3824
519.005673 92.784 176.6211
522.766602 92.782 176.8349
526.554785 92.787 176.9967
530.370418 92.799 177.0966
534.213700 92.810 177.1434
538.084833 92.819 177.1494
541.984018 92.823 177.1237
545.911457 92.825 177.0818
549.867357 92.825 177.0501
553.851922 92.823 177.0453
557.865362 92.821 177.0618
561.907884 92.820 177.0868
565.979700 92.818 177.1122
570.081022 92.811 177.1343
574.212064 92.797 177.1581
578.373042 92.775 177.1951
582.564171 92.746 177.2511
586.785671 92.712 177.3164
591.037762 92.678 177.3679
595.320665 92.643 177.3877
599.634604 92.608 177.3764
603.979804 92.572 177.3424
608.356491 92.534 177.2883
612.764893 92.500 177.2247
617.205240 92.472 177.1687
621.677763 92.448 177.1339
626.182696 92.428 177.1254
630.720274 92.407 177.1429
635.290733 92.385 177.1848
639.894312 92.362 177.2502
644.531250 92.336 177.3364
649.201789 92.307 177.4396
653.906173 92.275 177.5580
658.644647 92.241 177.6931
663.417457 92.207 177.8514
668.224854 92.174 178.0405
673.067086 92.143 178.2566
677.944408 92.115 178.4785
682.857073 92.089 178.6760
687.805336 92.064 178.8342
692.789457 92.040 178.9674
697.809695 92.016 179.1077
702.866312 91.993 179.2801
707.959571 91.972 179.4893
713.089738 91.953 179.7193
718.257080 91.934 179.9487
723.461867 91.912 -179.8308
728.704370 91.888 -179.6179
733.984862 91.863 -179.4109
739.303619 91.839 -179.2115
744.660918 91.818 -179.0275
750.057038 91.799 -178.8693
755.492260 91.781 -178.7403
760.966869 91.761 -178.6305
766.481148 91.740 -178.5278
772.035387 91.722 -178.4266
777.629873 91.706 -178.3209
783.264900 91.694 -178.1993
788.940760 91.685 -178.0504
794.657750 91.678 -177.8704
800.416168 91.671 -177.6670
806.216313 91.661 -177.4555
812.058489 91.649 -177.2527
817.943000 91.636 -177.0735
823.870152 91.624 -176.9189
829.840255 91.614 -176.7703
835.853619 91.605 -176.6015
841.910559 91.597 -176.3956
848.011390 91.590 -176.1447
854.156430 91.583 -175.8486
860.346000 91.578 -175.5193
866.580422 91.575 -175.1761
872.860020 91.570 -174.8442
879.185124 91.556 -174.5516
885.556062 91.535 -174.3159
891.973166 91.508 -174.1275
898.436771 91.482 -173.9633
904.947215 91.462 -173.8060
911.504835 91.450 -173.6439
918.109975 91.447 -173.4674
924.762978 91.449 -173.2623
931.464192 91.451 -173.0115
938.213966 91.448 -172.7156
945.012651 91.437 -172.4050
951.860602 91.416 -172.1171
958.758176 91.385 -171.8679
965.705733 91.351 -171.6398
972.703635 91.319 -171.4004
979.752246 91.292 -171.1325
986.851935 91.268 -170.8462
994.003071 91.246 -170.5638
1001.206027 91.224 -170.3009
1008.461179 91.204 -170.0569
1015.768904 91.188 -169.8198
1023.129584 91.176 -169.5814
1030.543603 91.170 -169.3429
1038.011347 91.167 -169.1069
1045.533205 91.165 -168.8593
1053.109569 91.161 -168.5792
1060.740836 91.154 -168.2611
1068.427401 91.144 -167.9138
1076.169666 91.135 -167.5529
1083.968035 91.130 -167.1956
1091.822915 91.128 -166.8559
1099.734713 91.129 -166.5367
1107.703844 91.130 -166.2312
1115.730723 91.130 -165.9239
1123.815768 91.129 -165.5941
1131.959400 91.126 -165.2311
1140.162045 91.123 -164.8455
1148.424129 91.120 -164.4596
1156.746083 91.116 -164.0858
1165.128342 91.111 -163.7249
1173.571343 91.105 -163.3715
1182.075524 91.098 -163.0195
1190.641331 91.092 -162.6645
1199.269209 91.090 -162.3023
1207.959608 91.092 -161.9296
1216.712981 91.098 -161.5447
1225.529785 91.107 -161.1487
1234.410479 91.121 -160.7506
1243.355526 91.136 -160.3653
1252.365393 91.154 -160.0035
1261.440549 91.175 -159.6635
1270.581467 91.197 -159.3377
1279.788624 91.220 -159.0220
1289.062500 91.241 -158.7138
1298.403578 91.261 -158.4098
1307.812346 91.280 -158.1089
1317.289293 91.298 -157.8112
1326.834914 91.315 -157.5108
1336.449707 91.333 -157.1954
1346.134173 91.352 -156.8554
1355.888816 91.371 -156.4915
1365.714145 91.393 -156.1114
1375.610673 91.415 -155.7240
1385.578915 91.439 -155.3351
1395.619391 91.465 -154.9456
1405.732624 91.490 -154.5556
1415.919142 91.516 -154.1691
1426.179476 91.544 -153.7912
1436.514160 91.574 -153.4240
1446.923734 91.605 -153.0660
1457.408740 91.637 -152.7168
1467.969724 91.670 -152.3765
1478.607238 91.702 -152.0436
1489.321836 91.736 -151.7154
1500.114076 91.772 -151.3880
1510.984521 91.810 -151.0583
1521.933737 91.849 -150.7251
1532.962297 91.888 -150.3888
1544.070773 91.928 -150.0555
1555.259747 91.968 -149.7417
1566.529800 92.010 -149.4648
1577.881521 92.054 -149.2276
1589.315501 92.100 -149.0149
1600.832336 92.147 -148.8089
1612.432627 92.195 -148.5985
1624.116978 92.243 -148.3749
1635.886000 92.291 -148.1338
1647.740304 92.337 -147.8817
1659.680509 92.382 -147.6329
1671.707238 92.428 -147.4005
1683.821118 92.475 -147.1894
1696.022780 92.523 -146.9961
1708.312860 92.570 -146.8127
1720.692000 92.617 -146.6300
1733.160843 92.664 -146.4408
1745.720041 92.713 -146.2446
1758.370248 92.763 -146.0473
1771.112124 92.812 -145.8547
1783.946332 92.861 -145.6682
1796.873543 92.908 -145.4863
1809.894429 92.953 -145.3073
1823.009670 92.996 -145.1320
1836.219950 93.037 -144.9666
1849.525956 93.078 -144.8191
1862.928384 93.118 -144.6927
1876.427931 93.159 -144.5834
1890.025301 93.201 -144.4818
1903.721204 93.244 -144.3789
1917.516352 93.289 -144.2698
1931.411466 93.335 -144.1547
1945.407270 93.382 -144.0350
1959.504493 93.428 -143.9113
1973.703870 93.473 -143.7856
1988.006142 93.517 -143.6638
2002.412054 93.561 -143.5517
2016.922357 93.605 -143.4503
2031.537808 93.648 -143.3536
2046.259169 93.690 -143.2558
2061.087206 93.733 -143.1575
2076.022694 93.775 -143.0627
2091.066410 93.816 -142.9752
2106.219139 93.856 -142.8982
2121.481671 93.893 -142.8325
2136.854802 93.927 -142.7766
2152.339333 93.960 -142.7306
2167.936071 93.992 -142.6957
2183.645829 94.022 -142.6689
2199.469427 94.052 -142.6455
2215.407689 94.081 -142.6243
2231.461446 94.109 -142.6074
2247.631536 94.136 -142.5961
2263.918800 94.161 -142.5874
2280.324089 94.183 -142.5798
2296.848258 94.202 -142.5768
2313.492167 94.221 -142.5790
2330.256685 94.239 -142.5784
2347.142685 94.255 -142.5641
2364.151049 94.268 -142.5278
2381.282662 94.277 -142.4650
2398.538418 94.282 -142.3766
2415.919216 94.284 -142.2678
2433.425962 94.282 -142.1430
2451.059570 94.279 -142.0024
2468.820958 94.274 -141.8430
2486.711052 94.269 -141.6606
2504.730786 94.263 -141.4533
2522.881098 94.255 -141.2241
2541.162934 94.245 -140.9772
2559.577248 94.233 -140.7141
2578.125000 94.219 -140.4324
2596.807157 94.204 -140.1232
2615.624692 94.187 -139.7738
2634.578586 94.171 -139.3709
2653.669829 94.157 -138.9043
2672.899414 94.147 -138.3703
2692.268345 94.143 -137.7710
2711.777632 94.147 -137.1136
2731.428290 94.160 -136.4099
2751.221345 94.184 -135.6716
2771.157829 94.218 -134.9097
2791.238781 94.261 -134.1382
2811.465248 94.313 -133.3775
2831.838284 94.371 -132.6475
2852.358952 94.434 -131.9579
2873.028321 94.501 -131.3078
2893.847468 94.568 -130.6895
2914.817480 94.635 -130.0878
2935.939449 94.701 -129.4834
2957.214476 94.767 -128.8582
2978.643672 94.835 -128.1985
3000.228152 94.906 -127.4944
3021.969041 94.981 -126.7444
3043.867475 95.064 -125.9563
3065.924593 95.156 -125.1432
3088.141547 95.260 -124.3202
3110.519493 95.378 -123.5025
3133.059600 95.510 -122.7024
3155.763041 95.655 -121.9290
3178.631001 95.811 -121.1877
3201.664672 95.978 -120.4805
3224.865254 96.154 -119.8075
3248.233957 96.339 -119.1680
3271.771999 96.531 -118.5637
3295.480608 96.733 -117.9995
3319.361019 96.944 -117.4816
3343.414477 97.166 -117.0173
3367.642236 97.399 -116.6165
3392.045560 97.642 -116.2892
3416.625721 97.897 -116.0437
3441.383999 98.162 -115.8893
3466.321686 98.438 -115.8380
3491.440082 98.723 -115.9061
3516.740496 99.016 -116.1116
3542.224247 99.315 -116.4698
3567.892664 99.616 -116.9933
3593.747085 99.915 -117.6897
3619.788858 100.208 -118.5599
3646.019340 100.494 -119.5990
3672.439900 100.768 -120.7985
3699.051913 101.028 -122.1491
3725.856768 101.274 -123.6430
3752.855862 101.503 -125.2753
3780.050603 101.713 -127.0433
3807.442408 101.901 -128.9423
3835.032705 102.062 -130.9608
3862.822933 102.196 -133.0798
3890.814540 102.298 -135.2735
3919.008986 102.368 -137.5128
3947.407741 102.404 -139.7690
3976.012284 102.408 -142.0147
4004.824108 102.380 -144.2249
4033.844715 102.321 -146.3772
4063.075616 102.234 -148.4517
4092.518337 102.119 -150.4314
4122.174412 101.979 -152.3006
4152.045387 101.816 -154.0451
4182.132820 101.631 -155.6521
4212.438278 101.429 -157.1097
4242.963342 101.211 -158.4077
4273.709604 100.979 -159.5378
4304.678665 100.738 -160.4940
4335.872141 100.488 -161.2729
4367.291658 100.235 -161.8740
4398.938854 99.980 -162.3001
4430.815378 99.726 -162.5565
4462.922893 99.476 -162.6508
4495.263072 99.231 -162.5916
4527.837601 98.995 -162.3883
4560.648179 98.768 -162.0502
4593.696515 98.551 -161.5860
4626.984334 98.345 -161.0024
4660.513370 98.152 -160.3029
4694.285371 97.971 -159.4875
4728.302098 97.805 -158.5546
4762.565324 97.656 -157.5036
4797.076835 97.527 -156.3389
4831.838432 97.423 -155.0745
4866.851925 97.349 -153.7387
4902.119140 97.308 -152.3755
4937.641916 97.301 -151.0423
4973.422105 97.326 -149.8024
5009.461572 97.379 -148.7152
5045.762195 97.450 -147.8247
5082.325868 97.530 -147.1491
5119.154496 97.606 -146.6772
5156.250000 97.670 -146.3715
5193.614313 97.716 -146.1761
5231.249383 97.741 -146.0270
5269.157173 97.747 -145.8633
5307.339658 97.737 -145.6377
5345.798829 97.719 -145.3230
5384.536691 97.697 -144.9132
5423.555263 97.677 -144.4168
5462.856580 97.661 -143.8483
5502.442691 97.650 -143.2204
5542.315659 97.645 -142.5420
5582.477563 97.648 -141.8190
5622.930497 97.659 -141.0564
5663.676569 97.678 -140.2591
5704.717904 97.707 -139.4318
5746.056642 97.745 -138.5792
5787.694937 97.793 -137.7066
5829.634960 97.853 -136.8200
5871.878898 97.923 -135.9269
5914.428953 98.005 -135.0346
5957.287343 98.099 -134.1496
6000.456303 98.204 -133.2776
6043.938083 98.321 -132.4241
6087.734950 98.450 -131.5952
6131.849187 98.591 -130.7983
6176.283094 98.745 -130.0426
6221.038987 98.911 -129.3383
6266.119200 99.087 -128.6951
6311.526083 99.274 -128.1207
6357.262002 99.471 -127.6197
6403.329344 99.676 -127.1943
6449.730508 99.889 -126.8466
6496.467914 100.110 -126.5798
6543.543998 100.338 -126.3999
6590.961215 100.575 -126.3154
6638.722037 100.818 -126.3360
6686.828954 101.067 -126.4723
6735.284473 101.322 -126.7348
6784.091120 101.579 -127.1338
6833.251441 101.837 -127.6792
6882.767998 102.094 -128.3792
6932.643372 102.345 -129.2390
6982.880164 102.588 -130.2604
7033.480992 102.819 -131.4403
7084.448495 103.035 -132.7708
7135.785329 103.232 -134.2398
7187.494171 103.407 -135.8322
7239.577717 103.559 -137.5309
7292.038681 103.684 -139.3169
7344.879799 103.782 -141.1687
7398.103826 103.850 -143.0620
7451.713536 103.887 -144.9691
7505.711724 103.893 -146.8609
7560.101205 103.869 -148.7071
7614.884815 103.816 -150.4780
7670.065409 103.736 -152.1452
7725.645865 103.633 -153.6833
7781.629080 103.511 -155.0714
7838.017972 103.373 -156.2946
7894.815481 103.225 -157.3450
7952.024569 103.072 -158.2224
8009.648217 102.919 -158.9334
8067.689429 102.768 -159.4897
8126.151233 102.624 -159.9056
8185.036674 102.489 -160.1969
8244.348824 102.365 -160.3793
8304.090774 102.253 -160.4686
8364.265639 102.154 -160.4799
8424.876556 102.070 -160.4281
8485.926684 102.000 -160.3281
8547.419207 101.946 -160.1944
8609.357330 101.907 -160.0419
8671.744282 101.882 -159.8845
8734.583316 101.872 -159.7345
8797.877707 101.875 -159.6015
8861.630756 101.890 -159.4930
8925.845785 101.917 -159.4149
8990.526143 101.955 -159.3723
9055.675202 102.003 -159.3701
9121.296357 102.061 -159.4137
9187.393031 102.129 -159.5090
9253.968668 102.207 -159.6630
9321.026740 102.295 -159.8844
9388.570742 102.393 -160.1837
9456.604196 102.500 -160.5742
9525.130648 102.617 -161.0720
9594.153671 102.742 -161.6959
9663.676863 102.875 -162.4678
9733.703850 103.012 -163.4107
9804.238280 103.151 -164.5487
9875.283832 103.287 -165.9054
9946.844210 103.416 -167.5018
10018.923143 103.530 -169.3543
10091.524390 103.620 -171.4722
10164.651736 103.679 -173.8549
10238.308993 103.694 -176.4899
10312.500000 103.656 -179.3497
10387.228626 103.553 177.6115
10462.498767 103.372 174.4611
10538.314345 103.101 171.2935
10614.679315 102.731 168.2368
10691.597657 102.252 165.4662
10769.073381 101.659 163.2279
10847.110526 100.956 161.8730
10925.713161 100.164 161.8995
11004.885382 99.336 163.9562
11084.631318 98.579 168.6725
11164.955126 98.049 176.0748
11245.860993 97.887 -175.1835
11327.353138 98.116 -167.4098
11409.435808 98.621 -162.1347
11492.113283 99.245 -159.4437
11575.389873 99.871 -158.7068
11659.269920 100.445 -159.2577
11743.757796 100.946 -160.6233
11828.857906 101.372 -162.5184
11914.574686 101.722 -164.7740
12000.912606 101.995 -167.2695
12087.876166 102.193 -169.8932
12175.469900 102.320 -172.5352
12263.698373 102.385 -175.0974
12352.566187 102.399 -177.5053
12442.077974 102.379 -179.7127
12532.238400 102.338 178.3016
12623.052165 102.293 176.5379
12714.524005 102.258 174.9699
12806.658687 102.249 173.5322
12899.461015 102.276 172.1200
12992.935827 102.341 170.6142
13087.087996 102.440 168.9144
13181.922430 102.566 166.9504
13277.444074 102.712 164.6686
13373.657907 102.871 162.0143
13470.568945 103.036 158.9256
13568.182241 103.191 155.3424
13666.502883 103.320 151.2226
13765.535996 103.396 146.5596
13865.286744 103.395 141.3950
13965.760328 103.290 135.8234
14066.961984 103.061 129.9897
14168.896989 102.694 124.0751
14271.570658 102.183 118.2782
14374.988342 101.530 112.7942
14479.155433 100.745 107.7986
14584.077362 99.844 103.4353
14689.759598 98.848 99.8105
14796.207652 97.777 96.9911
14903.427072 96.656 95.0056
15011.423448 95.509 93.8464
15120.202410 94.358 93.4741
15229.769630 93.224 93.8214
15340.130819 92.124 94.8015
15451.291730 91.073 96.3166
15563.258160 90.081 98.2669
15676.035944 89.154 100.5555
15789.630962 88.295 103.0897
15904.049137 87.502 105.7812
16019.296433 86.773 108.5479
16135.378859 86.101 111.3177
16252.302465 85.475 114.0388
16370.073348 84.884 116.6921
16488.697648 84.316 119.2968
16608.181548 83.761 121.9009
16728.531278 83.214 124.5641
16849.753112 82.672 127.3446
16971.853368 82.136 130.2930
17094.838414 81.610 133.4508
17218.714660 81.101 136.8487
17343.488565 80.616 140.5040
17469.166632 80.165 144.4147
17595.755415 79.759 148.5545
17723.261512 79.408 152.8718
17851.691571 79.121 157.2914
17981.052287 78.905 161.7122
18111.350404 78.765 165.9990
18242.592715 78.701 169.9817
18374.786062 78.701 173.4752
18507.937336 78.748 176.3133
18642.053479 78.810 178.3837
18777.141484 78.854 179.6548
18913.208391 78.839 -179.8094
19050.261296 78.731 -179.8445
19188.307342 78.504 179.7991
19327.353727 78.148 179.4152
19467.407699 77.677 179.2692
19608.476560 77.134 179.5132
19750.567664 76.591 -179.8829
19893.688419 76.142 -179.1489
20037.846286 75.886 -178.6389
