* Measurement data measured by REW V5.20.9
* Source: Input device not selected, no input selected, L, volume: no control. Timing signal peak level -54,3 dBFS, measurement signal peak level -25,1 dBFS
* Format: 256k Log Swept Sine, 1 sweep at -12,0 dBFS using an acoustic timing reference
* Dated: 25.07.2024 13:05:14
* REW Settings:
*  C-weighting compensation: Off
*  Target level: 75.0 dB
* Note: Delay 0,0909 ms (31 mm, 1,23 in) using estimated IR delay relative to Acoustic reference on  R with no timing offset
* Measurement: 600
* Smoothing: 1/12 octave
* Frequency Step: 96 ppo
* Start Frequency: 20.187378 Hz
*
* Freq(Hz) SPL(dB) Phase(degrees)
20.187378 86.715 -41.9923
20.333664 86.755 -42.1433
20.481010 86.816 -42.3808
20.629424 86.894 -42.7052
20.778913 86.986 -43.1148
20.929486 87.089 -43.6054
21.081150 87.200 -44.1679
21.233912 87.316 -44.7885
21.387782 87.433 -45.4479
21.542767 87.550 -46.1228
21.698874 87.664 -46.7874
21.856113 87.774 -47.4152
22.014492 87.879 -47.9819
22.174018 87.980 -48.4674
22.334700 88.077 -48.8587
22.496546 88.172 -49.1513
22.659566 88.266 -49.3506
22.823766 88.361 -49.4719
22.989157 88.458 -49.5385
23.155745 88.556 -49.5792
23.323542 88.655 -49.6241
23.492554 88.752 -49.7001
23.662790 88.845 -49.8270
23.834261 88.932 -50.0145
24.006973 89.010 -50.2608
24.180938 89.078 -50.5532
24.356163 89.137 -50.8711
24.532658 89.190 -51.1897
24.710431 89.241 -51.4859
24.889493 89.298 -51.7433
25.069853 89.366 -51.9581
25.251519 89.452 -52.1411
25.434502 89.560 -52.3181
25.618811 89.690 -52.5246
25.804456 89.841 -52.7991
25.991445 90.004 -53.1735
26.179790 90.172 -53.6658
26.369500 90.334 -54.2752
26.560584 90.480 -54.9816
26.753053 90.605 -55.7485
26.946917 90.703 -56.5287
27.142185 90.774 -57.2716
27.338869 90.823 -57.9312
27.536977 90.856 -58.4749
27.736522 90.883 -58.8894
27.937512 90.914 -59.1851
28.139959 90.958 -59.3946
28.343872 91.019 -59.5660
28.549264 91.099 -59.7517
28.756143 91.195 -59.9949
28.964522 91.300 -60.3182
29.174411 91.409 -60.7200
29.385821 91.515 -61.1766
29.598763 91.615 -61.6505
29.813248 91.709 -62.1016
30.029287 91.798 -62.4985
30.246891 91.886 -62.8269
30.466073 91.979 -63.0934
30.686842 92.078 -63.3227
30.909212 92.183 -63.5502
31.133193 92.292 -63.8101
31.358797 92.399 -64.1258
31.586035 92.500 -64.5034
31.814921 92.591 -64.9319
32.045465 92.671 -65.3879
32.277680 92.741 -65.8447
32.511577 92.804 -66.2804
32.747169 92.866 -66.6842
32.984469 92.931 -67.0583
33.223488 93.001 -67.4140
33.464239 93.077 -67.7648
33.706735 93.157 -68.1181
33.950987 93.239 -68.4711
34.197010 93.321 -68.8103
34.444816 93.402 -69.1174
34.694417 93.485 -69.3774
34.945827 93.572 -69.5873
35.199059 93.665 -69.7607
35.454126 93.767 -69.9256
35.711041 93.876 -70.1163
35.969818 93.986 -70.3629
36.230470 94.092 -70.6804
36.493011 94.189 -71.0647
36.757455 94.271 -71.4943
37.023814 94.340 -71.9376
37.292104 94.396 -72.3627
37.562338 94.446 -72.7466
37.834530 94.496 -73.0796
38.108695 94.551 -73.3654
38.384846 94.617 -73.6158
38.662999 94.693 -73.8441
38.943167 94.781 -74.0600
39.225365 94.877 -74.2690
39.509608 94.981 -74.4756
39.795911 95.090 -74.6876
40.084289 95.201 -74.9185
40.374756 95.312 -75.1865
40.667328 95.418 -75.5086
40.962020 95.516 -75.8937
41.258848 95.604 -76.3377
41.557827 95.681 -76.8227
41.858972 95.750 -77.3212
42.162299 95.815 -77.8038
42.467824 95.881 -78.2466
42.775564 95.952 -78.6359
43.085533 96.030 -78.9699
43.397749 96.113 -79.2558
43.712227 96.199 -79.5072
44.028983 96.283 -79.7415
44.348036 96.364 -79.9799
44.669400 96.440 -80.2464
44.993093 96.513 -80.5642
45.319131 96.585 -80.9484
45.647532 96.660 -81.3965
45.978313 96.742 -81.8833
46.311491 96.833 -82.3617
46.647083 96.934 -82.7737
46.985107 97.047 -83.0666
47.325581 97.166 -83.2098
47.668521 97.287 -83.2040
48.013947 97.403 -83.0820
48.361876 97.505 -82.9014
48.712326 97.590 -82.7343
49.065315 97.655 -82.6554
49.420863 97.704 -82.7307
49.778987 97.743 -83.0051
50.139706 97.779 -83.4906
50.503039 97.821 -84.1607
50.869005 97.874 -84.9541
51.237623 97.943 -85.7911
51.608912 98.025 -86.5961
51.982891 98.116 -87.3177
52.359580 98.210 -87.9385
52.739000 98.302 -88.4740
53.121168 98.387 -88.9613
53.506106 98.466 -89.4459
53.893833 98.543 -89.9662
54.284370 98.622 -90.5416
54.677737 98.706 -91.1652
55.073955 98.796 -91.8078
55.473043 98.890 -92.4326
55.875024 98.984 -93.0121
56.279917 99.070 -93.5360
56.687745 99.140 -94.0040
57.098527 99.189 -94.4111
57.512287 99.218 -94.7412
57.929045 99.239 -94.9798
58.348822 99.268 -95.1396
58.771642 99.321 -95.2750
59.197525 99.404 -95.4641
59.626495 99.509 -95.7659
60.058573 99.621 -96.1847
60.493782 99.725 -96.6749
60.932145 99.817 -97.1783
61.373685 99.898 -97.6628
61.818424 99.975 -98.1341
62.266386 100.050 -98.6159
62.717593 100.127 -99.1197
63.172071 100.204 -99.6330
63.629842 100.284 -100.1318
64.090930 100.365 -100.5996
64.555359 100.448 -101.0374
65.023154 100.531 -101.4577
65.494339 100.610 -101.8739
65.968938 100.687 -102.2949
66.446976 100.761 -102.7265
66.928478 100.834 -103.1732
67.413469 100.908 -103.6367
67.901975 100.981 -104.1156
68.394021 101.054 -104.6058
68.889632 101.127 -105.1024
69.388835 101.201 -105.6021
69.891655 101.275 -106.1019
70.398118 101.351 -106.5991
70.908252 101.429 -107.0913
71.422083 101.506 -107.5783
71.939636 101.581 -108.0636
72.460941 101.652 -108.5545
72.986023 101.720 -109.0596
73.514909 101.784 -109.5854
74.047629 101.847 -110.1324
74.584208 101.911 -110.6934
75.124676 101.977 -111.2553
75.669061 102.048 -111.8055
76.217390 102.120 -112.3384
76.769692 102.195 -112.8591
77.325997 102.271 -113.3785
77.886333 102.345 -113.9047
78.450730 102.418 -114.4360
79.019216 102.488 -114.9625
79.591822 102.557 -115.4757
80.168577 102.622 -115.9777
80.749512 102.687 -116.4834
81.334656 102.750 -117.0133
81.924040 102.814 -117.5819
82.517696 102.878 -118.1904
83.115653 102.945 -118.8267
83.717943 103.012 -119.4715
84.324598 103.077 -120.1064
84.935649 103.140 -120.7193
85.551128 103.199 -121.3077
86.171066 103.257 -121.8766
86.795497 103.317 -122.4347
87.424453 103.380 -122.9913
88.057967 103.447 -123.5556
88.696071 103.516 -124.1364
89.338800 103.583 -124.7400
89.986185 103.645 -125.3680
90.638262 103.700 -126.0190
91.295065 103.749 -126.6895
91.956626 103.794 -127.3720
92.622982 103.839 -128.0555
93.294166 103.887 -128.7323
93.970214 103.940 -129.4024
94.651161 103.997 -130.0695
95.337042 104.053 -130.7335
96.027894 104.107 -131.3917
96.723752 104.157 -132.0441
97.424652 104.204 -132.6967
98.130631 104.249 -133.3587
98.841726 104.294 -134.0380
99.557974 104.339 -134.7372
100.279412 104.384 -135.4523
101.006078 104.429 -136.1744
101.738010 104.472 -136.8928
102.475245 104.514 -137.5998
103.217823 104.554 -138.2942
103.965782 104.593 -138.9807
104.719161 104.629 -139.6663
105.477999 104.663 -140.3564
106.242336 104.696 -141.0530
107.012212 104.728 -141.7547
107.787666 104.759 -142.4595
108.568740 104.789 -143.1684
109.355474 104.819 -143.8855
110.147909 104.849 -144.6156
110.946086 104.879 -145.3611
111.750047 104.906 -146.1205
112.559834 104.933 -146.8897
113.375489 104.958 -147.6633
114.197055 104.983 -148.4358
115.024574 105.004 -149.2015
115.858089 105.022 -149.9570
116.697645 105.036 -150.7045
117.543284 105.048 -151.4519
118.395051 105.059 -152.2077
119.252990 105.071 -152.9766
120.117147 105.086 -153.7573
120.987565 105.101 -154.5438
121.864291 105.115 -155.3285
122.747370 105.127 -156.1051
123.636848 105.137 -156.8712
124.532771 105.145 -157.6274
125.435187 105.150 -158.3761
126.344142 105.154 -159.1207
127.259684 105.155 -159.8640
128.181860 105.153 -160.6081
129.110718 105.149 -161.3553
130.046308 105.143 -162.1070
130.988677 105.135 -162.8619
131.937875 105.124 -163.6165
132.893951 105.112 -164.3672
133.856956 105.097 -165.1107
134.826938 105.081 -165.8458
135.803950 105.062 -166.5708
136.788041 105.042 -167.2823
137.779264 105.020 -167.9754
138.777669 104.995 -168.6472
139.783309 104.968 -169.2989
140.796237 104.941 -169.9363
141.816504 104.914 -170.5679
142.844165 104.889 -171.1993
143.879273 104.866 -171.8287
144.921881 104.843 -172.4488
145.972045 104.821 -173.0529
147.029819 104.799 -173.6411
148.095257 104.777 -174.2200
149.168417 104.753 -174.7991
150.249353 104.726 -175.3841
151.338121 104.696 -175.9714
152.434780 104.664 -176.5530
153.539385 104.632 -177.1234
154.651995 104.599 -177.6819
155.772667 104.568 -178.2303
156.901460 104.537 -178.7715
158.038432 104.506 -179.3091
159.183644 104.475 -179.8456
160.337154 104.443 179.6189
161.499023 104.411 179.0862
162.669312 104.380 178.5580
163.848081 104.350 178.0342
165.035392 104.320 177.5140
166.231306 104.291 176.9969
167.435887 104.263 176.4837
168.649196 104.235 175.9744
169.871298 104.207 175.4674
171.102255 104.178 174.9605
172.342133 104.148 174.4512
173.590995 104.117 173.9390
174.848907 104.085 173.4255
176.115934 104.052 172.9127
177.392143 104.019 172.4019
178.677599 103.984 171.8939
179.972371 103.949 171.3890
181.276525 103.914 170.8865
182.590129 103.879 170.3859
183.913252 103.843 169.8883
185.245964 103.808 169.3966
186.588332 103.772 168.9130
187.940428 103.735 168.4382
189.302322 103.698 167.9717
190.674085 103.661 167.5133
192.055788 103.622 167.0621
193.447503 103.583 166.6168
194.849303 103.542 166.1758
196.261262 103.500 165.7372
197.683452 103.456 165.3004
199.115948 103.410 164.8655
200.558824 103.365 164.4337
202.012156 103.321 164.0058
203.476019 103.277 163.5828
204.950490 103.234 163.1651
206.435646 103.192 162.7529
207.931564 103.150 162.3467
209.438322 103.108 161.9471
210.955998 103.064 161.5538
212.484672 103.020 161.1657
214.024424 102.976 160.7823
215.575333 102.931 160.4040
217.137481 102.885 160.0300
218.710948 102.840 159.6582
220.295818 102.794 159.2871
221.892172 102.749 158.9173
223.500094 102.704 158.5511
225.119668 102.660 158.1907
226.750978 102.614 157.8373
228.394109 102.569 157.4911
230.049147 102.523 157.1519
231.716178 102.477 156.8187
233.395289 102.431 156.4893
235.086567 102.385 156.1608
236.790102 102.339 155.8317
238.505980 102.294 155.5028
240.234293 102.249 155.1766
241.975130 102.206 154.8568
243.728581 102.162 154.5469
245.494739 102.117 154.2484
247.273695 102.071 153.9598
249.065542 102.023 153.6805
250.870374 101.975 153.4130
252.688284 101.926 153.1595
254.519367 101.878 152.9185
256.363720 101.832 152.6841
258.221437 101.789 152.4478
260.092616 101.747 152.2043
261.977354 101.707 151.9537
263.875750 101.667 151.6998
265.787903 101.629 151.4464
267.713911 101.591 151.1964
269.653877 101.554 150.9518
271.607900 101.517 150.7158
273.576083 101.482 150.4920
275.558528 101.449 150.2820
277.555338 101.420 150.0828
279.566619 101.397 149.8869
281.592474 101.382 149.6858
283.633009 101.374 149.4718
285.688331 101.374 149.2389
287.758546 101.381 148.9799
289.843763 101.395 148.6814
291.944090 101.416 148.3239
294.059638 101.442 147.8862
296.190515 101.474 147.3472
298.336833 101.510 146.6810
300.498705 101.548 145.8551
302.676243 101.582 144.8312
304.869559 101.601 143.5746
307.078770 101.588 142.0753
309.303989 101.525 140.3764
311.545334 101.391 138.5999
313.802919 101.176 136.9522
316.076865 100.888 135.6870
318.367288 100.549 135.0159
320.674309 100.201 135.0127
322.998047 99.882 135.5826
325.338624 99.623 136.5150
327.696162 99.433 137.5791
330.070783 99.306 138.5980
332.462612 99.226 139.4727
334.871773 99.179 140.1689
337.298392 99.151 140.6918
339.742595 99.132 141.0665
342.204510 99.117 141.3253
344.684265 99.104 141.4974
347.181989 99.090 141.6059
349.697813 99.075 141.6696
352.231868 99.058 141.7036
354.784285 99.038 141.7171
357.355198 99.017 141.7144
359.944741 98.994 141.6978
362.553049 98.969 141.6690
365.180258 98.943 141.6291
367.826505 98.915 141.5780
370.491927 98.884 141.5170
373.176665 98.851 141.4496
375.880856 98.816 141.3800
378.604644 98.781 141.3096
381.348169 98.744 141.2348
384.111575 98.707 141.1504
386.895006 98.670 141.0540
389.698607 98.633 140.9485
392.522524 98.597 140.8396
395.366904 98.562 140.7320
398.231895 98.527 140.6295
401.117648 98.491 140.5345
404.024312 98.454 140.4475
406.952038 98.415 140.3665
409.900981 98.376 140.2884
412.871292 98.337 140.2107
415.863128 98.298 140.1308
418.876643 98.260 140.0447
421.911996 98.222 139.9492
424.969344 98.185 139.8453
428.048847 98.148 139.7401
431.150666 98.110 139.6420
434.274961 98.071 139.5544
437.421897 98.032 139.4741
440.591636 97.993 139.3936
443.784345 97.954 139.3069
447.000189 97.915 139.2120
450.239337 97.877 139.1108
453.501956 97.841 139.0080
456.788219 97.804 138.9076
460.098294 97.768 138.8125
463.432356 97.731 138.7239
466.790578 97.694 138.6417
470.173135 97.656 138.5639
473.580203 97.619 138.4892
477.011961 97.581 138.4158
480.468586 97.542 138.3417
483.950259 97.504 138.2656
487.457163 97.465 138.1876
490.989478 97.427 138.1099
494.547390 97.390 138.0349
498.131084 97.353 137.9621
501.740748 97.316 137.8894
505.376568 97.279 137.8181
509.038735 97.241 137.7521
512.727439 97.204 137.6955
516.442874 97.167 137.6492
520.185232 97.129 137.6105
523.954708 97.093 137.5748
527.751500 97.057 137.5387
531.575805 97.022 137.5001
535.427822 96.989 137.4555
539.307753 96.955 137.4011
543.215800 96.922 137.3364
547.152165 96.888 137.2658
551.117055 96.854 137.1951
555.110677 96.820 137.1279
559.133237 96.785 137.0642
563.184947 96.750 137.0026
567.266018 96.714 136.9418
571.376661 96.679 136.8792
575.517092 96.643 136.8119
579.687526 96.609 136.7390
583.888181 96.575 136.6625
588.119275 96.543 136.5851
592.381030 96.511 136.5096
596.673667 96.479 136.4378
600.997410 96.446 136.3688
605.352485 96.412 136.3000
609.739119 96.379 136.2318
614.157540 96.347 136.1679
618.607979 96.317 136.1116
623.090667 96.287 136.0634
627.605839 96.256 136.0209
632.153730 96.224 135.9815
636.734576 96.191 135.9433
641.348617 96.158 135.9034
645.996094 96.124 135.8574
650.677248 96.089 135.8035
655.392323 96.054 135.7430
660.141566 96.018 135.6803
664.925224 95.981 135.6204
669.743546 95.943 135.5661
674.596784 95.905 135.5161
679.485191 95.869 135.4651
684.409020 95.833 135.4085
689.368530 95.800 135.3453
694.363979 95.769 135.2775
699.395626 95.741 135.2065
704.463736 95.714 135.1328
709.568570 95.687 135.0570
714.710396 95.660 134.9798
719.889483 95.631 134.9018
725.106099 95.599 134.8238
730.360516 95.564 134.7448
735.653010 95.527 134.6632
740.983855 95.490 134.5832
746.353329 95.453 134.5140
751.761713 95.418 134.4617
757.209288 95.385 134.4242
762.696339 95.353 134.3934
768.223151 95.323 134.3596
773.790013 95.292 134.3175
779.397214 95.261 134.2695
785.045047 95.229 134.2214
790.733808 95.196 134.1757
796.463791 95.161 134.1331
802.235296 95.126 134.0941
808.048623 95.089 134.0587
813.904077 95.052 134.0244
819.801961 95.014 133.9893
825.742584 94.977 133.9545
831.726255 94.941 133.9214
837.753287 94.906 133.8887
843.823992 94.874 133.8533
849.938689 94.844 133.8149
856.097695 94.815 133.7765
862.301332 94.787 133.7407
868.549922 94.757 133.7068
874.843793 94.726 133.6726
881.183272 94.693 133.6371
887.568689 94.661 133.6007
894.000378 94.628 133.5660
900.478673 94.594 133.5377
907.003913 94.560 133.5218
913.576437 94.525 133.5190
920.196588 94.489 133.5234
926.864712 94.452 133.5246
933.581156 94.415 133.5136
940.346270 94.377 133.4891
947.160407 94.340 133.4582
954.023921 94.303 133.4339
960.937172 94.267 133.4286
967.900519 94.232 133.4499
974.914325 94.198 133.4980
981.978956 94.164 133.5645
989.094780 94.129 133.6373
996.262169 94.094 133.7060
1003.481495 94.059 133.7657
1010.753136 94.022 133.8190
1018.077470 93.985 133.8730
1025.454879 93.947 133.9333
1032.885748 93.910 134.0027
1040.370463 93.874 134.0813
1047.909417 93.841 134.1685
1055.503000 93.810 134.2626
1063.151610 93.781 134.3603
1070.855645 93.753 134.4581
1078.615506 93.725 134.5549
1086.431599 93.698 134.6521
1094.304330 93.671 134.7530
1102.234110 93.646 134.8608
1110.221353 93.622 134.9772
1118.266475 93.599 135.1022
1126.369895 93.578 135.2360
1134.532035 93.558 135.3779
1142.753322 93.538 135.5259
1151.034184 93.518 135.6766
1159.375052 93.498 135.8262
1167.776361 93.477 135.9737
1176.238550 93.454 136.1217
1184.762060 93.430 136.2736
1193.347334 93.406 136.4322
1201.994821 93.382 136.5991
1210.704971 93.361 136.7745
1219.478238 93.342 136.9568
1228.315080 93.323 137.1461
1237.215957 93.305 137.3455
1246.181334 93.286 137.5579
1255.211678 93.267 137.7842
1264.307459 93.249 138.0226
1273.469152 93.232 138.2704
1282.697235 93.217 138.5284
1291.992188 93.204 138.7996
1301.354495 93.194 139.0839
1310.784647 93.186 139.3792
1320.283132 93.179 139.6879
1329.850448 93.174 140.0172
1339.487093 93.171 140.3730
1349.193569 93.170 140.7551
1358.970381 93.172 141.1578
1368.818041 93.176 141.5743
1378.737061 93.183 141.9987
1388.727958 93.193 142.4268
1398.791253 93.206 142.8585
1408.927471 93.223 143.2970
1419.137140 93.244 143.7469
1429.420793 93.270 144.2123
1439.778965 93.302 144.6957
1450.212197 93.339 145.1991
1460.721033 93.381 145.7215
1471.306019 93.428 146.2592
1481.967709 93.480 146.8090
1492.706658 93.537 147.3712
1503.523426 93.601 147.9464
1514.418576 93.672 148.5317
1525.392678 93.749 149.1230
1536.446302 93.833 149.7183
1547.580025 93.925 150.3160
1558.794428 94.025 150.9143
1570.090095 94.132 151.5130
1581.467615 94.249 152.1116
1592.927581 94.375 152.7056
1604.470591 94.510 153.2867
1616.097246 94.655 153.8481
1627.808153 94.810 154.3877
1639.603922 94.974 154.9043
1651.485168 95.151 155.3931
1663.452510 95.338 155.8453
1675.506573 95.537 156.2508
1687.647984 95.746 156.6012
1699.877377 95.966 156.8911
1712.195390 96.195 157.1181
1724.602663 96.433 157.2807
1737.099845 96.680 157.3751
1749.687587 96.935 157.3949
1762.366544 97.199 157.3334
1775.137379 97.470 157.1852
1788.000756 97.747 156.9462
1800.957346 98.031 156.6121
1814.007826 98.320 156.1772
1827.152874 98.613 155.6351
1840.393177 98.909 154.9789
1853.729425 99.206 154.2039
1867.162312 99.504 153.3069
1880.692540 99.800 152.2855
1894.320813 100.094 151.1376
1908.047843 100.384 149.8622
1921.874344 100.668 148.4614
1935.801038 100.945 146.9412
1949.828650 101.213 145.3070
1963.957912 101.471 143.5627
1978.189561 101.718 141.7119
1992.524338 101.953 139.7596
2006.962991 102.173 137.7131
2021.506272 102.378 135.5821
2036.154940 102.568 133.3768
2050.909758 102.741 131.1054
2065.771495 102.897 128.7750
2080.740927 103.035 126.3942
2095.818833 103.155 123.9744
2111.006001 103.257 121.5273
2126.303220 103.341 119.0623
2141.711290 103.407 116.5880
2157.231013 103.456 114.1134
2172.863198 103.487 111.6481
2188.608660 103.501 109.2008
2204.468221 103.500 106.7792
2220.442706 103.483 104.3901
2236.532950 103.452 102.0410
2252.739789 103.408 99.7384
2269.064070 103.351 97.4866
2285.506644 103.284 95.2885
2302.068367 103.207 93.1470
2318.750104 103.121 91.0642
2335.552723 103.028 89.0415
2352.477101 102.928 87.0793
2369.524119 102.823 85.1767
2386.694668 102.713 83.3327
2403.989641 102.599 81.5453
2421.409941 102.482 79.8112
2438.956476 102.362 78.1270
2456.630160 102.240 76.4897
2474.431915 102.116 74.8969
2492.362668 101.990 73.3472
2510.423356 101.862 71.8397
2528.614918 101.732 70.3751
2546.938304 101.601 68.9536
2565.394469 101.469 67.5738
2583.984375 101.337 66.2343
2602.708991 101.204 64.9341
2621.569293 101.071 63.6718
2640.566265 100.939 62.4455
2659.700897 100.808 61.2523
2678.974186 100.678 60.0892
2698.387137 100.550 58.9534
2717.940763 100.424 57.8422
2737.636082 100.298 56.7528
2757.474121 100.174 55.6837
2777.455915 100.051 54.6340
2797.582506 99.928 53.6033
2817.854942 99.806 52.5917
2838.274281 99.686 51.5998
2858.841586 99.566 50.6271
2879.557931 99.448 49.6723
2900.424394 99.330 48.7339
2921.442065 99.214 47.8102
2942.612039 99.099 46.8995
2963.935418 98.985 46.0009
2985.413316 98.872 45.1146
3007.046852 98.760 44.2412
3028.837153 98.649 43.3805
3050.785356 98.538 42.5316
3072.892604 98.427 41.6940
3095.160050 98.317 40.8673
3117.588856 98.206 40.0520
3140.180190 98.094 39.2496
3162.935230 97.981 38.4630
3185.855163 97.867 37.6979
3208.941182 97.751 36.9642
3232.194493 97.634 36.2747
3255.616307 97.517 35.6440
3279.207844 97.402 35.0834
3302.970336 97.294 34.5965
3326.905021 97.195 34.1747
3351.013146 97.108 33.8018
3375.295969 97.036 33.4631
3399.754755 96.981 33.1435
3424.390779 96.947 32.8129
3449.205326 96.935 32.4148
3474.199690 96.940 31.8791
3499.375173 96.952 31.1564
3524.733088 96.958 30.2497
3550.274757 96.949 29.2113
3576.001511 96.920 28.1137
3601.914692 96.871 27.0203
3628.015651 96.809 25.9712
3654.305748 96.738 24.9831
3680.786354 96.662 24.0565
3707.458849 96.585 23.1835
3734.324624 96.509 22.3539
3761.385080 96.435 21.5576
3788.641627 96.364 20.7867
3816.095686 96.296 20.0349
3843.748688 96.231 19.2977
3871.602076 96.169 18.5709
3899.657300 96.109 17.8514
3927.915825 96.053 17.1368
3956.379122 95.999 16.4258
3985.048676 95.948 15.7173
4013.925981 95.900 15.0105
4043.012544 95.855 14.3044
4072.309879 95.811 13.5986
4101.819515 95.770 12.8922
4131.542990 95.732 12.1852
4161.481854 95.695 11.4772
4191.637667 95.662 10.7686
4222.012001 95.631 10.0592
4252.606441 95.603 9.3487
4283.422580 95.578 8.6357
4314.462026 95.556 7.9182
4345.726396 95.537 7.1945
4377.217321 95.520 6.4631
4408.936442 95.506 5.7236
4440.885413 95.494 4.9758
4473.065899 95.485 4.2197
4505.479579 95.479 3.4559
4538.128141 95.474 2.6855
4571.013288 95.472 1.9102
4604.136735 95.473 1.1313
4637.500207 95.477 0.3501
4671.105446 95.485 -0.4341
4704.954201 95.497 -1.2256
4739.048239 95.515 -2.0328
4773.389336 95.537 -2.8664
4807.979283 95.563 -3.7338
4842.819883 95.590 -4.6366
4877.912952 95.618 -5.5710
4913.260320 95.645 -6.5294
4948.863830 95.671 -7.5018
4984.725337 95.696 -8.4774
5020.846712 95.721 -9.4463
5057.229836 95.748 -10.4011
5093.876609 95.778 -11.3392
5130.788938 95.813 -12.2637
5167.968750 95.856 -13.1826
5205.417982 95.906 -14.1069
5243.138586 95.965 -15.0483
5281.132530 96.032 -16.0175
5319.401793 96.106 -17.0229
5357.948371 96.188 -18.0716
5396.774274 96.277 -19.1691
5435.881525 96.372 -20.3208
5475.272163 96.473 -21.5321
5514.948243 96.580 -22.8091
5554.911831 96.691 -24.1580
5595.165012 96.807 -25.5856
5635.709884 96.925 -27.0997
5676.548561 97.045 -28.7092
5717.683172 97.164 -30.4237
5759.115861 97.279 -32.2528
5800.848789 97.387 -34.2047
5842.884130 97.483 -36.2820
5885.224077 97.558 -38.4756
5927.870837 97.607 -40.7563
5970.826633 97.620 -43.0631
6014.093704 97.591 -45.2899
6057.674306 97.522 -47.2771
6101.570711 97.426 -48.8193
6145.785208 97.334 -49.7157
6190.320101 97.300 -49.8847
6235.177712 97.379 -49.5074
6280.360380 97.602 -49.0566
6325.870460 97.953 -49.0925
6371.710325 98.380 -49.9769
6417.882365 98.823 -51.7733
6464.388986 99.243 -54.3453
6511.232613 99.617 -57.4952
6558.415689 99.938 -61.0454
6605.940673 100.207 -64.8640
6653.810042 100.428 -68.8626
6702.026292 100.604 -72.9851
6750.591937 100.738 -77.1947
6799.509509 100.833 -81.4640
6848.781558 100.889 -85.7681
6898.410653 100.908 -90.0817
6948.399380 100.889 -94.3788
6998.750346 100.836 -98.6331
7049.466176 100.749 -102.8194
7100.549514 100.632 -106.9156
7152.003023 100.488 -110.9041
7203.829385 100.321 -114.7725
7256.031302 100.135 -118.5134
7308.611496 99.932 -122.1233
7361.572708 99.715 -125.6000
7414.917698 99.487 -128.9422
7468.649249 99.250 -132.1489
7522.770160 99.007 -135.2191
7577.283253 98.759 -138.1529
7632.191371 98.509 -140.9513
7687.497376 98.260 -143.6172
7743.204151 98.015 -146.1556
7799.314600 97.774 -148.5730
7855.831649 97.541 -150.8777
7912.758244 97.317 -153.0791
7970.097352 97.104 -155.1883
8027.851962 96.903 -157.2173
8086.025087 96.714 -159.1787
8144.619758 96.540 -161.0843
8203.639030 96.379 -162.9454
8263.085980 96.234 -164.7728
8322.963708 96.104 -166.5764
8383.275334 95.989 -168.3658
8444.024002 95.891 -170.1505
8505.212881 95.808 -171.9402
8566.845160 95.742 -173.7456
8628.924051 95.692 -175.5775
8691.452792 95.660 -177.4476
8754.434642 95.646 -179.3686
8817.872884 95.651 178.6458
8881.770826 95.674 176.5790
8946.131799 95.716 174.4114
9010.959157 95.778 172.1194
9076.256282 95.858 169.6757
9142.026576 95.957 167.0488
9208.273470 96.071 164.2045
9275.000415 96.198 161.1057
9342.210891 96.334 157.7148
9409.908403 96.472 153.9962
9478.096478 96.604 149.9193
9546.778672 96.719 145.4623
9615.958566 96.808 140.6172
9685.639765 96.856 135.3914
9755.825904 96.851 129.8088
9826.520640 96.779 123.9109
9897.727659 96.629 117.7554
9969.450674 96.387 111.4194
10041.693423 96.041 105.0023
10114.459673 95.579 98.6343
10187.753217 94.994 92.4819
10261.577877 94.277 86.7584
10335.937500 93.429 81.7386
10410.835964 92.458 77.7883
10486.277173 91.387 75.4163
10562.265060 90.270 75.3334
10638.803587 89.205 78.4276
10715.896743 88.355 85.3195
10793.548548 87.910 95.1463
10871.763050 87.975 104.9128
10950.544327 88.478 111.6966
11029.896485 89.236 114.7266
11109.823662 90.071 114.6424
11190.330024 90.870 112.3198
11271.419768 91.571 108.4669
11353.097122 92.148 103.6039
11435.366344 92.593 98.1173
11518.231722 92.912 92.3006
11601.697577 93.115 86.3772
11685.768261 93.218 80.5139
11770.448155 93.240 74.8292
11855.741674 93.197 69.4009
11941.653265 93.108 64.2723
12028.187408 92.988 59.4589
12115.348612 92.853 54.9547
12203.141422 92.715 50.7382
12291.570415 92.586 46.7787
12380.640201 92.474 43.0397
12470.355424 92.389 39.4798
12560.720760 92.339 36.0518
12651.740920 92.331 32.6987
12743.420650 92.372 29.3509
12835.764729 92.466 25.9226
12928.777972 92.617 22.3136
13022.465227 92.821 18.4146
13116.831378 93.073 14.1155
13211.881345 93.359 9.3152
13307.620084 93.662 3.9306
13404.052584 93.959 -2.0912
13501.183875 94.227 -8.7614
13599.019019 94.441 -16.0418
13697.563116 94.578 -23.8478
13796.821305 94.624 -32.0603
13896.798760 94.572 -40.5475
13997.500692 94.421 -49.1862
14098.932352 94.174 -57.8773
14201.099028 93.837 -66.5455
14304.006046 93.410 -75.1247
14407.658770 92.895 -83.5406
14512.062604 92.293 -91.7004
14617.222992 91.609 -99.5016
14723.145416 90.852 -106.8492
14829.835397 90.038 -113.6738
14937.298497 89.185 -119.9430
15045.540320 88.312 -125.6632
15154.566507 87.437 -130.8748
15264.382743 86.575 -135.6414
15374.994752 85.736 -140.0394
15486.408302 84.925 -144.1464
15598.629201 84.143 -148.0322
15711.663298 83.390 -151.7537
15825.516487 82.662 -155.3505
15940.194703 81.954 -158.8480
16055.703925 81.265 -162.2639
16172.050174 80.591 -165.6160
16289.239516 79.930 -168.9255
16407.278061 79.277 -172.2122
16526.171961 78.625 -175.4727
16645.927415 77.963 -178.6565
16766.550667 77.283 178.3442
16888.048005 76.584 175.6730
17010.425762 75.875 173.4565
17133.690320 75.176 171.7451
17257.848103 74.511 170.4810
17382.905584 73.901 169.5244
17508.869284 73.351 168.7449
17635.745768 72.858 168.1426
17763.541652 72.423 167.9132
17892.263597 72.069 168.3762
18021.918315 71.850 169.7292
18152.512564 71.832 171.6868
18284.053153 72.044 173.3411
18416.546939 72.447 173.6132
18550.000830 72.946 171.8975
18684.421783 73.442 168.1929
18819.816805 73.861 162.8196
18956.192956 74.161 156.1655
19093.557344 74.319 148.5845
19231.917131 74.326 140.3877
19371.279531 74.187 131.8649
19511.651807 73.924 123.3003
19653.041280 73.588 114.9890
19795.455318 73.263 107.2346
19938.901348 73.059 100.3094
