* Measurement data measured by REW V5.20.9
* Source: Input device not selected, no input selected, L, volume: no control. Timing signal peak level -13,4 dBFS, measurement signal peak level -13,4 dBFS
* Format: 256k Log Swept Sine, 1 sweep at -12,0 dBFS using an acoustic timing reference
* Dated: 13.02.2024 22:45:44
* REW Settings:
*  C-weighting compensation: Off
*  Target level: 75.0 dB
* Note: Delay -0,0208 ms (-7,1 mm, -0,28 in) using estimated IR delay relative to Acoustic reference on  R with no timing offset
* Measurement: CNT
* Smoothing: 1/12 octave
* Frequency Step: 96 ppo
* Start Frequency: 20.187378 Hz
*
* Freq(Hz) SPL(dB) Phase(degrees)
20.187378 87.504 136.7290
20.333664 87.531 136.5453
20.481010 87.570 136.2809
20.629424 87.618 135.9688
20.778913 87.673 135.6368
20.929486 87.734 135.3044
21.081150 87.800 134.9824
21.233912 87.874 134.6747
21.387782 87.956 134.3796
21.542767 88.046 134.0925
21.698874 88.146 133.8074
21.856113 88.253 133.5188
22.014492 88.366 133.2235
22.174018 88.482 132.9213
22.334700 88.599 132.6160
22.496546 88.714 132.3147
22.659566 88.823 132.0273
22.823766 88.926 131.7647
22.989157 89.021 131.5373
23.155745 89.108 131.3529
23.323542 89.187 131.2150
23.492554 89.260 131.1217
23.662790 89.330 131.0644
23.834261 89.397 131.0284
24.006973 89.465 130.9942
24.180938 89.535 130.9394
24.356163 89.608 130.8414
24.532658 89.684 130.6808
24.710431 89.765 130.4434
24.889493 89.849 130.1228
25.069853 89.937 129.7204
25.251519 90.028 129.2457
25.434502 90.122 128.7145
25.618811 90.220 128.1467
25.804456 90.322 127.5642
25.991445 90.428 126.9880
26.179790 90.538 126.4363
26.369500 90.652 125.9232
26.560584 90.770 125.4579
26.753053 90.889 125.0448
26.946917 91.008 124.6843
27.142185 91.125 124.3737
27.338869 91.239 124.1077
27.536977 91.347 123.8793
27.736522 91.451 123.6802
27.937512 91.548 123.5009
28.139959 91.641 123.3306
28.343872 91.729 123.1580
28.549264 91.815 122.9713
28.756143 91.899 122.7597
28.964522 91.984 122.5146
29.174411 92.070 122.2307
29.385821 92.156 121.9071
29.598763 92.244 121.5477
29.813248 92.333 121.1613
30.029287 92.422 120.7601
30.246891 92.509 120.3589
30.466073 92.595 119.9723
30.686842 92.679 119.6136
30.909212 92.759 119.2922
31.133193 92.838 119.0127
31.358797 92.914 118.7738
31.586035 92.989 118.5682
31.814921 93.065 118.3834
32.045465 93.141 118.2033
32.277680 93.219 118.0110
32.511577 93.298 117.7912
32.747169 93.379 117.5332
32.984469 93.460 117.2333
33.223488 93.543 116.8953
33.464239 93.625 116.5300
33.706735 93.707 116.1531
33.950987 93.789 115.7818
34.197010 93.872 115.4312
34.444816 93.956 115.1112
34.694417 94.043 114.8244
34.945827 94.131 114.5664
35.199059 94.222 114.3270
35.454126 94.313 114.0935
35.711041 94.403 113.8538
35.969818 94.491 113.5989
36.230470 94.575 113.3242
36.493011 94.655 113.0294
36.757455 94.732 112.7174
37.023814 94.805 112.3924
37.292104 94.878 112.0583
37.562338 94.951 111.7180
37.834530 95.025 111.3727
38.108695 95.101 111.0222
38.384846 95.180 110.6657
38.662999 95.261 110.3032
38.943167 95.344 109.9355
39.225365 95.427 109.5660
39.509608 95.511 109.2003
39.795911 95.594 108.8461
40.084289 95.678 108.5119
40.374756 95.761 108.2048
40.667328 95.845 107.9283
40.962020 95.929 107.6801
41.258848 96.014 107.4517
41.557827 96.098 107.2306
41.858972 96.180 107.0033
42.162299 96.258 106.7591
42.467824 96.332 106.4928
42.775564 96.402 106.2038
43.085533 96.471 105.8937
43.397749 96.543 105.5626
43.712227 96.621 105.2076
44.028983 96.707 104.8253
44.348036 96.798 104.4166
44.669400 96.892 103.9931
44.993093 96.981 103.5776
45.319131 97.063 103.1977
45.647532 97.135 102.8736
45.978313 97.198 102.6044
46.311491 97.254 102.3614
46.647083 97.307 102.0938
46.985107 97.356 101.7473
47.325581 97.400 101.2886
47.668521 97.441 100.7236
48.013947 97.478 100.0989
48.361876 97.519 99.4869
48.712326 97.571 98.9582
49.065315 97.643 98.5556
49.420863 97.739 98.2809
49.778987 97.855 98.1020
50.139706 97.984 97.9722
50.503039 98.114 97.8512
50.869005 98.235 97.7146
51.237623 98.342 97.5526
51.608912 98.435 97.3622
51.982891 98.515 97.1426
52.359580 98.587 96.8950
52.739000 98.656 96.6245
53.121168 98.723 96.3406
53.506106 98.791 96.0524
53.893833 98.860 95.7635
54.284370 98.929 95.4708
54.677737 98.996 95.1689
55.073955 99.058 94.8569
55.473043 99.115 94.5423
55.875024 99.168 94.2367
56.279917 99.222 93.9466
56.687745 99.282 93.6671
57.098527 99.350 93.3841
57.512287 99.426 93.0839
57.929045 99.508 92.7625
58.348822 99.592 92.4274
58.771642 99.678 92.0896
59.197525 99.764 91.7532
59.626495 99.851 91.4118
60.058573 99.936 91.0535
60.493782 100.018 90.6702
60.932145 100.093 90.2641
61.373685 100.161 89.8470
61.818424 100.225 89.4333
62.266386 100.288 89.0335
62.717593 100.352 88.6505
63.172071 100.420 88.2792
63.629842 100.493 87.9100
64.090930 100.567 87.5326
64.555359 100.640 87.1415
65.023154 100.711 86.7384
65.494339 100.779 86.3315
65.968938 100.844 85.9304
66.446976 100.909 85.5423
66.928478 100.976 85.1706
67.413469 101.045 84.8150
67.901975 101.117 84.4727
68.394021 101.189 84.1371
68.889632 101.262 83.7984
69.388835 101.333 83.4466
69.891655 101.403 83.0755
70.398118 101.471 82.6843
70.908252 101.540 82.2763
71.422083 101.609 81.8558
71.939636 101.679 81.4269
72.460941 101.750 80.9939
72.986023 101.820 80.5622
73.514909 101.888 80.1382
74.047629 101.954 79.7254
74.584208 102.017 79.3220
75.124676 102.080 78.9220
75.669061 102.143 78.5192
76.217390 102.205 78.1113
76.769692 102.267 77.7001
77.325997 102.329 77.2888
77.886333 102.389 76.8786
78.450730 102.448 76.4690
79.019216 102.505 76.0590
79.591822 102.562 75.6473
80.168577 102.620 75.2335
80.749512 102.679 74.8182
81.334656 102.740 74.4038
81.924040 102.803 73.9931
82.517696 102.866 73.5865
83.115653 102.928 73.1808
83.717943 102.988 72.7695
84.324598 103.046 72.3457
84.935649 103.103 71.9058
85.551128 103.159 71.4529
86.171066 103.213 70.9961
86.795497 103.266 70.5462
87.424453 103.319 70.1081
88.057967 103.375 69.6784
88.696071 103.432 69.2494
89.338800 103.492 68.8159
89.986185 103.552 68.3767
90.638262 103.612 67.9316
91.295065 103.671 67.4782
91.956626 103.728 67.0140
92.622982 103.782 66.5392
93.294166 103.834 66.0582
93.970214 103.883 65.5774
94.651161 103.929 65.1023
95.337042 103.972 64.6350
96.027894 104.012 64.1756
96.723752 104.052 63.7248
97.424652 104.092 63.2839
98.130631 104.133 62.8534
98.841726 104.176 62.4284
99.557974 104.220 61.9989
100.279412 104.265 61.5539
101.006078 104.310 61.0896
101.738010 104.353 60.6110
102.475245 104.396 60.1267
103.217823 104.437 59.6430
103.965782 104.478 59.1626
104.719161 104.517 58.6870
105.477999 104.557 58.2178
106.242336 104.597 57.7559
107.012212 104.638 57.3011
107.787666 104.678 56.8507
108.568740 104.717 56.3971
109.355474 104.756 55.9308
110.147909 104.793 55.4448
110.946086 104.829 54.9384
111.750047 104.865 54.4171
112.559834 104.899 53.8890
113.375489 104.932 53.3592
114.197055 104.963 52.8289
115.024574 104.992 52.2987
115.858089 105.020 51.7698
116.697645 105.048 51.2439
117.543284 105.076 50.7216
118.395051 105.104 50.2045
119.252990 105.132 49.6997
120.117147 105.160 49.2163
120.987565 105.188 48.7552
121.864291 105.217 48.3056
122.747370 105.247 47.8498
123.636848 105.277 47.3765
124.532771 105.304 46.8915
125.435187 105.329 46.4094
126.344142 105.351 45.9400
127.259684 105.370 45.4857
128.181860 105.388 45.0414
129.110718 105.404 44.5967
130.046308 105.419 44.1421
130.988677 105.434 43.6759
131.937875 105.448 43.2043
132.893951 105.462 42.7356
133.856956 105.475 42.2747
134.826938 105.487 41.8210
135.803950 105.500 41.3708
136.788041 105.513 40.9203
137.779264 105.527 40.4669
138.777669 105.541 40.0076
139.783309 105.556 39.5398
140.796237 105.571 39.0638
141.816504 105.587 38.5823
142.844165 105.601 38.0994
143.879273 105.615 37.6201
144.921881 105.626 37.1500
145.972045 105.636 36.6930
147.029819 105.645 36.2481
148.095257 105.651 35.8093
149.168417 105.657 35.3694
150.249353 105.662 34.9255
151.338121 105.665 34.4804
152.434780 105.668 34.0391
153.539385 105.670 33.6040
154.651995 105.672 33.1750
155.772667 105.673 32.7503
156.901460 105.673 32.3288
158.038432 105.673 31.9094
159.183644 105.672 31.4910
160.337154 105.671 31.0727
161.499023 105.669 30.6547
162.669312 105.666 30.2380
163.848081 105.663 29.8242
165.035392 105.659 29.4150
166.231306 105.654 29.0115
167.435887 105.649 28.6140
168.649196 105.643 28.2226
169.871298 105.637 27.8372
171.102255 105.631 27.4581
172.342133 105.625 27.0846
173.590995 105.619 26.7150
174.848907 105.612 26.3467
176.115934 105.604 25.9785
177.392143 105.595 25.6111
178.677599 105.586 25.2463
179.972371 105.575 24.8858
181.276525 105.564 24.5298
182.590129 105.552 24.1774
183.913252 105.541 23.8276
185.245964 105.529 23.4806
186.588332 105.517 23.1374
187.940428 105.506 22.7989
189.302322 105.495 22.4648
190.674085 105.484 22.1348
192.055788 105.471 21.8104
193.447503 105.458 21.4938
194.849303 105.443 21.1852
196.261262 105.428 20.8824
197.683452 105.411 20.5817
199.115948 105.395 20.2807
200.558824 105.380 19.9799
202.012156 105.365 19.6813
203.476019 105.350 19.3857
204.950490 105.335 19.0935
206.435646 105.321 18.8055
207.931564 105.305 18.5219
209.438322 105.289 18.2431
210.955998 105.273 17.9697
212.484672 105.256 17.7016
214.024424 105.238 17.4379
215.575333 105.221 17.1776
217.137481 105.203 16.9211
218.710948 105.184 16.6694
220.295818 105.164 16.4242
221.892172 105.143 16.1867
223.500094 105.121 15.9560
225.119668 105.099 15.7289
226.750978 105.077 15.5019
228.394109 105.057 15.2746
230.049147 105.037 15.0500
231.716178 105.017 14.8328
233.395289 104.997 14.6259
235.086567 104.977 14.4273
236.790102 104.958 14.2313
238.505980 104.938 14.0337
240.234293 104.919 13.8357
241.975130 104.898 13.6401
243.728581 104.877 13.4467
245.494739 104.855 13.2513
247.273695 104.834 13.0488
249.065542 104.812 12.8393
250.870374 104.792 12.6319
252.688284 104.772 12.4381
254.519367 104.752 12.2623
256.363720 104.732 12.1000
258.221437 104.711 11.9442
260.092616 104.690 11.7907
261.977354 104.668 11.6385
263.875750 104.647 11.4879
265.787903 104.624 11.3402
267.713911 104.602 11.1967
269.653877 104.581 11.0584
271.607900 104.559 10.9251
273.576083 104.539 10.7960
275.558528 104.520 10.6707
277.555338 104.501 10.5482
279.566619 104.484 10.4262
281.592474 104.466 10.3012
283.633009 104.447 10.1711
285.688331 104.427 10.0391
287.758546 104.407 9.9095
289.843763 104.387 9.7843
291.944090 104.368 9.6637
294.059638 104.348 9.5488
296.190515 104.328 9.4436
298.336833 104.307 9.3520
300.498705 104.285 9.2732
302.676243 104.265 9.2017
304.869559 104.245 9.1317
307.078770 104.225 9.0604
309.303989 104.205 8.9890
311.545334 104.184 8.9199
313.802919 104.161 8.8543
316.076865 104.138 8.7921
318.367288 104.115 8.7328
320.674309 104.093 8.6755
322.998047 104.072 8.6192
325.338624 104.053 8.5630
327.696162 104.035 8.5062
330.070783 104.016 8.4487
332.462612 103.998 8.3912
334.871773 103.980 8.3346
337.298392 103.963 8.2798
339.742595 103.947 8.2271
342.204510 103.931 8.1764
344.684265 103.916 8.1282
347.181989 103.900 8.0831
349.697813 103.885 8.0408
352.231868 103.870 8.0003
354.784285 103.856 7.9616
357.355198 103.842 7.9258
359.944741 103.830 7.8952
362.553049 103.818 7.8725
365.180258 103.805 7.8594
367.826505 103.791 7.8530
370.491927 103.775 7.8480
373.176665 103.759 7.8393
375.880856 103.744 7.8241
378.604644 103.729 7.8035
381.348169 103.717 7.7812
384.111575 103.705 7.7619
386.895006 103.696 7.7495
389.698607 103.687 7.7434
392.522524 103.679 7.7361
395.366904 103.671 7.7189
398.231895 103.664 7.6859
401.117648 103.656 7.6331
404.024312 103.649 7.5605
406.952038 103.644 7.4747
409.900981 103.643 7.3849
412.871292 103.648 7.2946
415.863128 103.657 7.1994
418.876643 103.669 7.0895
421.911996 103.682 6.9545
424.969344 103.695 6.7844
428.048847 103.706 6.5710
431.150666 103.715 6.3103
434.274961 103.720 6.0004
437.421897 103.717 5.6373
440.591636 103.703 5.2104
443.784345 103.672 4.7085
447.000189 103.618 4.1378
450.239337 103.539 3.5421
453.501956 103.436 2.9941
456.788219 103.311 2.5692
460.098294 103.172 2.3248
463.432356 103.027 2.2922
466.790578 102.886 2.4749
470.173135 102.758 2.8496
473.580203 102.649 3.3702
477.011961 102.563 3.9773
480.468586 102.500 4.6099
483.950259 102.455 5.2208
487.457163 102.427 5.7828
490.989478 102.410 6.2854
494.547390 102.403 6.7291
498.131084 102.401 7.1197
501.740748 102.404 7.4638
505.376568 102.409 7.7674
509.038735 102.414 8.0361
512.727439 102.418 8.2728
516.442874 102.422 8.4792
520.185232 102.425 8.6577
523.954708 102.427 8.8155
527.751500 102.427 8.9642
531.575805 102.427 9.1134
535.427822 102.424 9.2655
539.307753 102.419 9.4164
543.215800 102.411 9.5611
547.152165 102.402 9.6995
551.117055 102.391 9.8381
555.110677 102.380 9.9836
559.133237 102.368 10.1332
563.184947 102.355 10.2784
567.266018 102.342 10.4153
571.376661 102.331 10.5458
575.517092 102.321 10.6750
579.687526 102.313 10.8092
583.888181 102.304 10.9509
588.119275 102.295 11.0985
592.381030 102.286 11.2510
596.673667 102.278 11.4087
600.997410 102.269 11.5704
605.352485 102.261 11.7348
609.739119 102.254 11.9018
614.157540 102.246 12.0718
618.607979 102.240 12.2446
623.090667 102.234 12.4200
627.605839 102.229 12.5983
632.153730 102.224 12.7803
636.734576 102.220 12.9647
641.348617 102.216 13.1478
645.996094 102.212 13.3258
650.677248 102.208 13.4959
655.392323 102.205 13.6575
660.141566 102.199 13.8142
664.925224 102.192 13.9747
669.743546 102.184 14.1458
674.596784 102.177 14.3244
679.485191 102.170 14.5010
684.409020 102.166 14.6734
689.368530 102.164 14.8457
694.363979 102.164 15.0218
699.395626 102.166 15.2020
704.463736 102.169 15.3838
709.568570 102.171 15.5652
714.710396 102.172 15.7442
719.889483 102.172 15.9183
725.106099 102.171 16.0841
730.360516 102.170 16.2390
735.653010 102.169 16.3834
740.983855 102.167 16.5210
746.353329 102.165 16.6572
751.761713 102.163 16.7956
757.209288 102.161 16.9370
762.696339 102.159 17.0792
768.223151 102.156 17.2187
773.790013 102.153 17.3534
779.397214 102.148 17.4825
785.045047 102.142 17.6071
790.733808 102.136 17.7307
796.463791 102.129 17.8578
802.235296 102.120 17.9915
808.048623 102.112 18.1327
813.904077 102.103 18.2809
819.801961 102.094 18.4357
825.742584 102.086 18.5968
831.726255 102.079 18.7645
837.753287 102.073 18.9400
843.823992 102.067 19.1231
849.938689 102.061 19.3105
856.097695 102.055 19.4992
862.301332 102.049 19.6886
868.549922 102.041 19.8806
874.843793 102.033 20.0792
881.183272 102.024 20.2872
887.568689 102.016 20.5053
894.000378 102.007 20.7325
900.478673 101.998 20.9662
907.003913 101.988 21.2028
913.576437 101.978 21.4376
920.196588 101.968 21.6674
926.864712 101.958 21.8948
933.581156 101.949 22.1263
940.346270 101.939 22.3650
947.160407 101.929 22.6053
954.023921 101.918 22.8388
960.937172 101.905 23.0645
967.900519 101.892 23.2885
974.914325 101.878 23.5195
981.978956 101.864 23.7641
989.094780 101.850 24.0235
996.262169 101.836 24.2955
1003.481495 101.823 24.5767
1010.753136 101.812 24.8643
1018.077470 101.804 25.1578
1025.454879 101.796 25.4576
1032.885748 101.788 25.7625
1040.370463 101.780 26.0716
1047.909417 101.772 26.3853
1055.503000 101.764 26.7050
1063.151610 101.757 27.0303
1070.855645 101.750 27.3605
1078.615506 101.742 27.6970
1086.431599 101.733 28.0417
1094.304330 101.724 28.3960
1102.234110 101.715 28.7611
1110.221353 101.707 29.1385
1118.266475 101.699 29.5282
1126.369895 101.692 29.9275
1134.532035 101.686 30.3322
1142.753322 101.681 30.7385
1151.034184 101.677 31.1449
1159.375052 101.672 31.5522
1167.776361 101.667 31.9604
1176.238550 101.662 32.3688
1184.762060 101.659 32.7783
1193.347334 101.656 33.1933
1201.994821 101.655 33.6208
1210.704971 101.655 34.0675
1219.478238 101.657 34.5372
1228.315080 101.660 35.0274
1237.215957 101.664 35.5306
1246.181334 101.669 36.0387
1255.211678 101.673 36.5481
1264.307459 101.678 37.0597
1273.469152 101.682 37.5748
1282.697235 101.687 38.0914
1291.992188 101.693 38.6067
1301.354495 101.700 39.1202
1310.784647 101.708 39.6355
1320.283132 101.716 40.1581
1329.850448 101.724 40.6924
1339.487093 101.734 41.2405
1349.193569 101.744 41.8035
1358.970381 101.757 42.3809
1368.818041 101.770 42.9705
1378.737061 101.784 43.5698
1388.727958 101.800 44.1777
1398.791253 101.817 44.7947
1408.927471 101.835 45.4222
1419.137140 101.854 46.0604
1429.420793 101.876 46.7077
1439.778965 101.899 47.3601
1450.212197 101.923 48.0133
1460.721033 101.949 48.6665
1471.306019 101.976 49.3238
1481.967709 102.003 49.9923
1492.706658 102.032 50.6784
1503.523426 102.062 51.3854
1514.418576 102.095 52.1128
1525.392678 102.129 52.8577
1536.446302 102.166 53.6172
1547.580025 102.203 54.3900
1558.794428 102.242 55.1766
1570.090095 102.283 55.9787
1581.467615 102.327 56.7988
1592.927581 102.374 57.6390
1604.470591 102.425 58.4986
1616.097246 102.480 59.3757
1627.808153 102.539 60.2693
1639.603922 102.602 61.1806
1651.485168 102.668 62.1105
1663.452510 102.738 63.0576
1675.506573 102.813 64.0185
1687.647984 102.891 64.9925
1699.877377 102.974 65.9830
1712.195390 103.062 66.9946
1724.602663 103.157 68.0302
1737.099845 103.258 69.0884
1749.687587 103.369 70.1625
1762.366544 103.488 71.2426
1775.137379 103.617 72.3220
1788.000756 103.754 73.4003
1800.957346 103.900 74.4813
1814.007826 104.055 75.5661
1827.152874 104.221 76.6505
1840.393177 104.397 77.7263
1853.729425 104.584 78.7855
1867.162312 104.781 79.8226
1880.692540 104.989 80.8330
1894.320813 105.209 81.8083
1908.047843 105.440 82.7356
1921.874344 105.682 83.6045
1935.801038 105.933 84.4112
1949.828650 106.193 85.1557
1963.957912 106.461 85.8361
1978.189561 106.735 86.4470
1992.524338 107.014 86.9836
2006.962991 107.298 87.4470
2021.506272 107.587 87.8404
2036.154940 107.880 88.1641
2050.909758 108.179 88.4134
2065.771495 108.483 88.5815
2080.740927 108.790 88.6652
2095.818833 109.100 88.6642
2111.006001 109.411 88.5769
2126.303220 109.722 88.4004
2141.711290 110.031 88.1360
2157.231013 110.338 87.7904
2172.863198 110.643 87.3708
2188.608660 110.946 86.8784
2204.468221 111.248 86.3101
2220.442706 111.549 85.6630
2236.532950 111.848 84.9384
2252.739789 112.143 84.1379
2269.064070 112.435 83.2581
2285.506644 112.724 82.2939
2302.068367 113.006 81.2452
2318.750104 113.283 80.1170
2335.552723 113.553 78.9130
2352.477101 113.816 77.6343
2369.524119 114.072 76.2818
2386.694668 114.321 74.8564
2403.989641 114.561 73.3566
2421.409941 114.794 71.7789
2438.956476 115.016 70.1214
2456.630160 115.226 68.3866
2474.431915 115.424 66.5804
2492.362668 115.607 64.7088
2510.423356 115.776 62.7781
2528.614918 115.929 60.7961
2546.938304 116.066 58.7707
2565.394469 116.186 56.7090
2583.984375 116.288 54.6183
2602.708991 116.374 52.5070
2621.569293 116.441 50.3843
2640.566265 116.489 48.2594
2659.700897 116.520 46.1407
2678.974186 116.533 44.0376
2698.387137 116.527 41.9598
2717.940763 116.505 39.9170
2737.636082 116.466 37.9184
2757.474121 116.411 35.9728
2777.455915 116.342 34.0880
2797.582506 116.259 32.2703
2817.854942 116.164 30.5246
2838.274281 116.058 28.8545
2858.841586 115.942 27.2619
2879.557931 115.818 25.7474
2900.424394 115.687 24.3108
2921.442065 115.549 22.9514
2942.612039 115.407 21.6688
2963.935418 115.260 20.4622
2985.413316 115.109 19.3305
3007.046852 114.955 18.2719
3028.837153 114.800 17.2836
3050.785356 114.642 16.3620
3072.892604 114.484 15.5036
3095.160050 114.326 14.7052
3117.588856 114.166 13.9644
3140.180190 114.007 13.2799
3162.935230 113.847 12.6507
3185.855163 113.686 12.0755
3208.941182 113.526 11.5528
3232.194493 113.366 11.0814
3255.616307 113.205 10.6610
3279.207844 113.043 10.2925
3302.970336 112.881 9.9784
3326.905021 112.717 9.7238
3351.013146 112.553 9.5364
3375.295969 112.389 9.4269
3399.754755 112.226 9.4081
3424.390779 112.067 9.4928
3449.205326 111.915 9.6896
3474.199690 111.776 9.9981
3499.375173 111.655 10.4015
3524.733088 111.559 10.8603
3550.274757 111.491 11.3098
3576.001511 111.449 11.6700
3601.914692 111.425 11.8697
3628.015651 111.406 11.8775
3654.305748 111.378 11.7164
3680.786354 111.332 11.4504
3707.458849 111.265 11.1554
3734.324624 111.179 10.8939
3761.385080 111.079 10.7033
3788.641627 110.971 10.5980
3816.095686 110.859 10.5770
3843.748688 110.748 10.6316
3871.602076 110.638 10.7509
3899.657300 110.532 10.9240
3927.915825 110.430 11.1413
3956.379122 110.332 11.3952
3985.048676 110.238 11.6801
4013.925981 110.149 11.9916
4043.012544 110.063 12.3268
4072.309879 109.982 12.6836
4101.819515 109.904 13.0597
4131.542990 109.831 13.4531
4161.481854 109.762 13.8614
4191.637667 109.696 14.2826
4222.012001 109.635 14.7150
4252.606441 109.577 15.1568
4283.422580 109.523 15.6064
4314.462026 109.473 16.0617
4345.726396 109.427 16.5202
4377.217321 109.384 16.9786
4408.936442 109.346 17.4332
4440.885413 109.310 17.8800
4473.065899 109.278 18.3148
4505.479579 109.248 18.7334
4538.128141 109.219 19.1321
4571.013288 109.189 19.5094
4604.136735 109.156 19.8675
4637.500207 109.119 20.2149
4671.105446 109.075 20.5681
4704.954201 109.024 20.9517
4739.048239 108.966 21.3948
4773.389336 108.904 21.9249
4807.979283 108.842 22.5602
4842.819883 108.787 23.3027
4877.912952 108.742 24.1371
4913.260320 108.712 25.0350
4948.863830 108.697 25.9631
4984.725337 108.698 26.8915
5020.846712 108.711 27.7992
5057.229836 108.735 28.6751
5093.876609 108.767 29.5171
5130.788938 108.806 30.3288
5167.968750 108.850 31.1155
5205.417982 108.899 31.8813
5243.138586 108.953 32.6266
5281.132530 109.013 33.3486
5319.401793 109.077 34.0431
5357.948371 109.145 34.7060
5396.774274 109.215 35.3344
5435.881525 109.285 35.9281
5475.272163 109.353 36.4922
5514.948243 109.417 37.0415
5554.911831 109.474 37.6039
5595.165012 109.524 38.2191
5635.709884 109.573 38.9308
5676.548561 109.627 39.7712
5717.683172 109.695 40.7443
5759.115861 109.786 41.8205
5800.848789 109.906 42.9455
5842.884130 110.056 44.0591
5885.224077 110.233 45.1111
5927.870837 110.433 46.0683
5970.826633 110.653 46.9136
6014.093704 110.889 47.6406
6057.674306 111.139 48.2486
6101.570711 111.401 48.7382
6145.785208 111.674 49.1093
6190.320101 111.958 49.3595
6235.177712 112.252 49.4834
6280.360380 112.555 49.4727
6325.870460 112.869 49.3164
6371.710325 113.190 49.0012
6417.882365 113.519 48.5123
6464.388986 113.852 47.8343
6511.232613 114.188 46.9518
6558.415689 114.522 45.8510
6605.940673 114.851 44.5204
6653.810042 115.169 42.9532
6702.026292 115.472 41.1487
6750.591937 115.752 39.1136
6799.509509 116.006 36.8621
6848.781558 116.228 34.4155
6898.410653 116.414 31.8017
6948.399380 116.559 29.0541
6998.750346 116.663 26.2094
7049.466176 116.723 23.3050
7100.549514 116.740 20.3773
7152.003023 116.713 17.4613
7203.829385 116.644 14.5905
7256.031302 116.535 11.7976
7308.611496 116.386 9.1148
7361.572708 116.202 6.5729
7414.917698 115.985 4.1996
7468.649249 115.741 2.0171
7522.770160 115.475 0.0405
7577.283253 115.193 -1.7232
7632.191371 114.899 -3.2755
7687.497376 114.600 -4.6251
7743.204151 114.299 -5.7875
7799.314600 114.001 -6.7833
7855.831649 113.709 -7.6371
7912.758244 113.423 -8.3766
7970.097352 113.144 -9.0302
8027.851962 112.871 -9.6255
8086.025087 112.602 -10.1857
8144.619758 112.333 -10.7268
8203.639030 112.057 -11.2535
8263.085980 111.769 -11.7542
8322.963708 111.463 -12.1950
8383.275334 111.130 -12.5158
8444.024002 110.770 -12.6273
8505.212881 110.384 -12.4161
8566.845160 109.980 -11.7587
8628.924051 109.579 -10.5521
8691.452792 109.210 -8.7566
8754.434642 108.903 -6.4373
8817.872884 108.688 -3.7783
8881.770826 108.579 -1.0462
8946.131799 108.572 1.4869
9010.959157 108.646 3.6193
9076.256282 108.774 5.2559
9142.026576 108.929 6.3991
9208.273470 109.091 7.1128
9275.000415 109.246 7.4821
9342.210891 109.391 7.5794
9409.908403 109.523 7.4495
9478.096478 109.637 7.1185
9546.778672 109.730 6.6196
9615.958566 109.800 6.0116
9685.639765 109.849 5.3617
9755.825904 109.889 4.6948
9826.520640 109.929 3.9597
9897.727659 109.968 3.0610
9969.450674 109.993 1.9326
10041.693423 109.984 0.5838
10114.459673 109.927 -0.9032
10187.753217 109.813 -2.4056
10261.577877 109.644 -3.7956
10335.937500 109.429 -4.9673
10410.835964 109.184 -5.8552
10486.277173 108.926 -6.4453
10562.265060 108.670 -6.7747
10638.803587 108.429 -6.9202
10715.896743 108.204 -6.9743
10793.548548 107.993 -7.0150
10871.763050 107.784 -7.0820
10950.544327 107.567 -7.1658
11029.896485 107.332 -7.2133
11109.823662 107.072 -7.1414
11190.330024 106.790 -6.8545
11271.419768 106.492 -6.2589
11353.097122 106.190 -5.2752
11435.366344 105.903 -3.8496
11518.231722 105.655 -1.9698
11601.697577 105.469 0.3132
11685.768261 105.370 2.8631
11770.448155 105.372 5.4554
11855.741674 105.473 7.8179
11941.653265 105.651 9.7108
12028.187408 105.872 11.0064
12115.348612 106.101 11.7201
12203.141422 106.312 11.9817
12291.570415 106.494 11.9714
12380.640201 106.652 11.8558
12470.355424 106.803 11.7441
12560.720760 106.966 11.6682
12651.740920 107.161 11.5829
12743.420650 107.401 11.3806
12835.764729 107.691 10.9158
12928.777972 108.024 10.0351
13022.465227 108.383 8.6051
13116.831378 108.743 6.5346
13211.881345 109.075 3.7884
13307.620084 109.348 0.3930
13404.052584 109.535 -3.5647
13501.183875 109.614 -7.9444
13599.019019 109.568 -12.5658
13697.563116 109.394 -17.2288
13796.821305 109.097 -21.7408
13896.798760 108.691 -25.9450
13997.500692 108.199 -29.7411
14098.932352 107.642 -33.0906
14201.099028 107.042 -36.0039
14304.006046 106.413 -38.5174
14407.658770 105.765 -40.6695
14512.062604 105.103 -42.4902
14617.222992 104.431 -44.0008
14723.145416 103.754 -45.2213
14829.835397 103.071 -46.1740
14937.298497 102.386 -46.8815
15045.540320 101.696 -47.3616
15154.566507 101.001 -47.6206
15264.382743 100.299 -47.6518
15374.994752 99.590 -47.4376
15486.408302 98.875 -46.9557
15598.629201 98.157 -46.1866
15711.663298 97.442 -45.1179
15825.516487 96.735 -43.7473
15940.194703 96.040 -42.0816
16055.703925 95.365 -40.1350
16172.050174 94.714 -37.9282
16289.239516 94.091 -35.4877
16407.278061 93.501 -32.8444
16526.171961 92.946 -30.0308
16645.927415 92.429 -27.0780
16766.550667 91.950 -24.0116
16888.048005 91.511 -20.8518
17010.425762 91.113 -17.6162
17133.690320 90.759 -14.3243
17257.848103 90.452 -11.0015
17382.905584 90.194 -7.6824
17508.869284 89.989 -4.4129
17635.745768 89.840 -1.2533
17763.541652 89.747 1.7205
17892.263597 89.709 4.4184
18021.918315 89.722 6.7389
18152.512564 89.776 8.5760
18284.053153 89.857 9.8306
18416.546939 89.946 10.4274
18550.000830 90.016 10.3315
18684.421783 90.039 9.5605
18819.816805 89.988 8.1903
18956.192956 89.835 6.3536
19093.557344 89.561 4.2368
19231.917131 89.156 2.0702
19371.279531 88.627 0.1006
19511.651807 88.008 -1.4585
19653.041280 87.368 -2.4867
19795.455318 86.817 -3.0032
19938.901348 86.490 -3.1571
