* Measurement data measured by REW V5.20.9
* Source: Input device not selected, no input selected, L, volume: no control. Timing signal peak level -19,5 dBFS, measurement signal peak level -19,5 dBFS
* Format: 256k Log Swept Sine, 1 sweep at -12,0 dBFS using an acoustic timing reference
* Dated: 13.02.2024 22:38:24
* REW Settings:
*  C-weighting compensation: Off
*  Target level: 75.0 dB
* Note: Delay -0,1650 ms (-57 mm, -2,23 in) using estimated IR delay relative to Acoustic reference on  R with no timing offset
* Measurement: LCP
* Smoothing: 1/12 octave
* Frequency Step: 96 ppo
* Start Frequency: 20.187378 Hz
*
* Freq(Hz) SPL(dB) Phase(degrees)
20.187378 88.590 -51.0325
20.333664 88.616 -51.2842
20.481010 88.654 -51.6492
20.629424 88.700 -52.0808
20.778913 88.752 -52.5397
20.929486 88.806 -52.9983
21.081150 88.862 -53.4400
21.233912 88.919 -53.8570
21.387782 88.979 -54.2469
21.542767 89.040 -54.6107
21.698874 89.104 -54.9507
21.856113 89.170 -55.2695
22.014492 89.238 -55.5688
22.174018 89.308 -55.8493
22.334700 89.380 -56.1109
22.496546 89.455 -56.3533
22.659566 89.533 -56.5763
22.823766 89.614 -56.7806
22.989157 89.701 -56.9686
23.155745 89.792 -57.1441
23.323542 89.890 -57.3124
23.492554 89.995 -57.4794
23.662790 90.106 -57.6514
23.834261 90.222 -57.8334
24.006973 90.344 -58.0292
24.180938 90.470 -58.2403
24.356163 90.599 -58.4663
24.532658 90.730 -58.7057
24.710431 90.862 -58.9569
24.889493 90.994 -59.2191
25.069853 91.127 -59.4938
25.251519 91.260 -59.7851
25.434502 91.392 -60.0999
25.618811 91.522 -60.4466
25.804456 91.649 -60.8342
25.991445 91.770 -61.2696
26.179790 91.883 -61.7562
26.369500 91.987 -62.2917
26.560584 92.080 -62.8677
26.753053 92.161 -63.4698
26.946917 92.229 -64.0791
27.142185 92.287 -64.6743
27.338869 92.337 -65.2349
27.536977 92.383 -65.7449
27.736522 92.431 -66.1954
27.937512 92.483 -66.5871
28.139959 92.545 -66.9304
28.343872 92.619 -67.2435
28.549264 92.703 -67.5489
28.756143 92.797 -67.8686
28.964522 92.896 -68.2191
29.174411 92.995 -68.6083
29.385821 93.091 -69.0345
29.598763 93.180 -69.4870
29.813248 93.258 -69.9491
30.029287 93.327 -70.4019
30.246891 93.388 -70.8291
30.466073 93.443 -71.2198
30.686842 93.497 -71.5718
30.909212 93.553 -71.8916
31.133193 93.615 -72.1931
31.358797 93.684 -72.4935
31.586035 93.760 -72.8095
31.814921 93.841 -73.1523
32.045465 93.924 -73.5253
32.277680 94.007 -73.9231
32.511577 94.085 -74.3335
32.747169 94.158 -74.7410
32.984469 94.226 -75.1310
33.223488 94.289 -75.4947
33.464239 94.351 -75.8314
33.706735 94.413 -76.1488
33.950987 94.477 -76.4612
34.197010 94.545 -76.7848
34.444816 94.616 -77.1321
34.694417 94.692 -77.5072
34.945827 94.770 -77.9048
35.199059 94.852 -78.3114
35.454126 94.939 -78.7114
35.711041 95.032 -79.0933
35.969818 95.134 -79.4559
36.230470 95.245 -79.8107
36.493011 95.363 -80.1793
36.757455 95.485 -80.5856
37.023814 95.605 -81.0472
37.292104 95.717 -81.5667
37.562338 95.813 -82.1295
37.834530 95.892 -82.7059
38.108695 95.953 -83.2602
38.384846 96.000 -83.7616
38.662999 96.040 -84.1947
38.943167 96.081 -84.5666
39.225365 96.127 -84.9059
39.509608 96.183 -85.2545
39.795911 96.246 -85.6541
40.084289 96.314 -86.1333
40.374756 96.382 -86.6991
40.667328 96.447 -87.3362
40.962020 96.510 -88.0124
41.258848 96.571 -88.6887
41.557827 96.635 -89.3284
41.858972 96.707 -89.9051
42.162299 96.790 -90.4061
42.467824 96.884 -90.8322
42.775564 96.987 -91.1948
43.085533 97.093 -91.5114
43.397749 97.198 -91.8016
43.712227 97.294 -92.0849
44.028983 97.376 -92.3784
44.348036 97.444 -92.6962
44.669400 97.498 -93.0471
44.993093 97.540 -93.4335
45.319131 97.578 -93.8497
45.647532 97.617 -94.2825
45.978313 97.665 -94.7146
46.311491 97.728 -95.1312
46.647083 97.808 -95.5259
46.985107 97.906 -95.9043
47.325581 98.014 -96.2811
47.668521 98.123 -96.6721
48.013947 98.221 -97.0848
48.361876 98.301 -97.5133
48.712326 98.356 -97.9401
49.065315 98.389 -98.3451
49.420863 98.407 -98.7163
49.778987 98.418 -99.0571
50.139706 98.434 -99.3848
50.503039 98.461 -99.7213
50.869005 98.502 -100.0810
51.237623 98.556 -100.4638
51.608912 98.621 -100.8582
51.982891 98.692 -101.2493
52.359580 98.766 -101.6280
52.739000 98.837 -101.9936
53.121168 98.902 -102.3518
53.506106 98.961 -102.7112
53.893833 99.013 -103.0824
54.284370 99.062 -103.4785
54.677737 99.110 -103.9136
55.073955 99.159 -104.3970
55.473043 99.209 -104.9258
55.875024 99.258 -105.4826
56.279917 99.305 -106.0417
56.687745 99.352 -106.5823
57.098527 99.399 -107.0990
57.512287 99.448 -107.6021
57.929045 99.502 -108.1076
58.348822 99.561 -108.6232
58.771642 99.623 -109.1423
59.197525 99.689 -109.6482
59.626495 99.756 -110.1251
60.058573 99.822 -110.5675
60.493782 99.883 -110.9827
60.932145 99.932 -111.3865
61.373685 99.970 -111.7980
61.818424 99.996 -112.2349
62.266386 100.017 -112.7105
62.717593 100.037 -113.2302
63.172071 100.063 -113.7885
63.629842 100.099 -114.3685
64.090930 100.145 -114.9468
64.555359 100.198 -115.5018
65.023154 100.254 -116.0220
65.494339 100.310 -116.5085
65.968938 100.363 -116.9715
66.446976 100.410 -117.4221
66.928478 100.452 -117.8674
67.413469 100.488 -118.3102
67.901975 100.520 -118.7532
68.394021 100.550 -119.2021
68.889632 100.577 -119.6639
69.388835 100.602 -120.1419
69.891655 100.627 -120.6338
70.398118 100.653 -121.1336
70.908252 100.682 -121.6368
71.422083 100.716 -122.1427
71.939636 100.753 -122.6533
72.460941 100.793 -123.1691
72.986023 100.831 -123.6865
73.514909 100.866 -124.1987
74.047629 100.899 -124.7008
74.584208 100.929 -125.1932
75.124676 100.958 -125.6821
75.669061 100.987 -126.1747
76.217390 101.016 -126.6746
76.769692 101.046 -127.1800
77.325997 101.077 -127.6852
77.886333 101.112 -128.1836
78.450730 101.148 -128.6708
79.019216 101.186 -129.1463
79.591822 101.222 -129.6144
80.168577 101.255 -130.0832
80.749512 101.284 -130.5604
81.334656 101.309 -131.0488
81.924040 101.334 -131.5442
82.517696 101.357 -132.0378
83.115653 101.381 -132.5214
83.717943 101.402 -132.9908
84.324598 101.419 -133.4463
84.935649 101.432 -133.8925
85.551128 101.441 -134.3364
86.171066 101.447 -134.7820
86.795497 101.453 -135.2276
87.424453 101.457 -135.6671
88.057967 101.460 -136.0968
88.696071 101.465 -136.5205
89.338800 101.473 -136.9507
89.986185 101.486 -137.4040
90.638262 101.504 -137.8906
91.295065 101.525 -138.4060
91.956626 101.546 -138.9340
92.622982 101.564 -139.4593
93.294166 101.580 -139.9746
93.970214 101.594 -140.4777
94.651161 101.607 -140.9666
95.337042 101.618 -141.4378
96.027894 101.626 -141.8898
96.723752 101.632 -142.3233
97.424652 101.637 -142.7417
98.130631 101.642 -143.1497
98.841726 101.648 -143.5544
99.557974 101.655 -143.9636
100.279412 101.663 -144.3791
101.006078 101.669 -144.7957
101.738010 101.676 -145.2074
102.475245 101.686 -145.6136
103.217823 101.697 -146.0179
103.965782 101.709 -146.4267
104.719161 101.719 -146.8488
105.477999 101.723 -147.2905
106.242336 101.719 -147.7494
107.012212 101.708 -148.2166
107.787666 101.689 -148.6758
108.568740 101.664 -149.1018
109.355474 101.634 -149.4750
110.147909 101.601 -149.8092
110.946086 101.572 -150.1543
111.750047 101.554 -150.5619
112.559834 101.552 -151.0458
113.375489 101.562 -151.5776
114.197055 101.580 -152.1149
115.024574 101.596 -152.6296
115.858089 101.607 -153.1159
116.697645 101.612 -153.5780
117.543284 101.610 -154.0161
118.395051 101.604 -154.4251
119.252990 101.595 -154.8002
120.117147 101.584 -155.1425
120.987565 101.573 -155.4612
121.864291 101.562 -155.7726
122.747370 101.551 -156.0941
123.636848 101.540 -156.4372
124.532771 101.528 -156.8029
125.435187 101.515 -157.1815
126.344142 101.501 -157.5584
127.259684 101.484 -157.9246
128.181860 101.464 -158.2798
129.110718 101.442 -158.6293
130.046308 101.419 -158.9806
130.988677 101.397 -159.3386
131.937875 101.376 -159.7005
132.893951 101.356 -160.0563
133.856956 101.337 -160.3959
134.826938 101.319 -160.7173
135.803950 101.301 -161.0306
136.788041 101.284 -161.3509
137.779264 101.269 -161.6847
138.777669 101.255 -162.0262
139.783309 101.239 -162.3672
140.796237 101.221 -162.7038
141.816504 101.200 -163.0347
142.844165 101.175 -163.3590
143.879273 101.149 -163.6757
144.921881 101.122 -163.9836
145.972045 101.094 -164.2824
147.029819 101.066 -164.5740
148.095257 101.039 -164.8627
149.168417 101.013 -165.1526
150.249353 100.991 -165.4449
151.338121 100.970 -165.7373
152.434780 100.951 -166.0272
153.539385 100.931 -166.3127
154.651995 100.909 -166.5913
155.772667 100.886 -166.8596
156.901460 100.861 -167.1142
158.038432 100.834 -167.3554
159.183644 100.807 -167.5883
160.337154 100.779 -167.8191
161.499023 100.750 -168.0521
162.669312 100.721 -168.2885
163.848081 100.692 -168.5266
165.035392 100.661 -168.7642
166.231306 100.631 -168.9995
167.435887 100.599 -169.2330
168.649196 100.567 -169.4659
169.871298 100.533 -169.6974
171.102255 100.497 -169.9245
172.342133 100.460 -170.1419
173.590995 100.422 -170.3461
174.848907 100.384 -170.5386
176.115934 100.348 -170.7242
177.392143 100.313 -170.9077
178.677599 100.279 -171.0908
179.972371 100.246 -171.2711
181.276525 100.214 -171.4433
182.590129 100.181 -171.6022
183.913252 100.149 -171.7465
185.245964 100.117 -171.8783
186.588332 100.084 -172.0036
187.940428 100.052 -172.1307
189.302322 100.019 -172.2646
190.674085 99.987 -172.4063
192.055788 99.953 -172.5542
193.447503 99.919 -172.7050
194.849303 99.885 -172.8521
196.261262 99.849 -172.9880
197.683452 99.811 -173.1087
199.115948 99.772 -173.2171
200.558824 99.732 -173.3198
202.012156 99.693 -173.4202
203.476019 99.653 -173.5180
204.950490 99.615 -173.6113
206.435646 99.578 -173.6982
207.931564 99.541 -173.7773
209.438322 99.503 -173.8510
210.955998 99.465 -173.9238
212.484672 99.425 -173.9970
214.024424 99.384 -174.0688
215.575333 99.342 -174.1393
217.137481 99.301 -174.2104
218.710948 99.260 -174.2818
220.295818 99.219 -174.3483
221.892172 99.178 -174.3997
223.500094 99.137 -174.4289
225.119668 99.095 -174.4415
226.750978 99.055 -174.4472
228.394109 99.016 -174.4502
230.049147 98.978 -174.4497
231.716178 98.941 -174.4427
233.395289 98.905 -174.4270
235.086567 98.869 -174.4026
236.790102 98.833 -174.3735
238.505980 98.795 -174.3480
240.234293 98.754 -174.3341
241.975130 98.712 -174.3344
243.728581 98.668 -174.3453
245.494739 98.624 -174.3606
247.273695 98.578 -174.3725
249.065542 98.531 -174.3729
250.870374 98.484 -174.3546
252.688284 98.437 -174.3137
254.519367 98.392 -174.2548
256.363720 98.349 -174.1900
258.221437 98.309 -174.1304
260.092616 98.272 -174.0799
261.977354 98.235 -174.0349
263.875750 98.198 -173.9870
265.787903 98.157 -173.9299
267.713911 98.112 -173.8621
269.653877 98.064 -173.7830
271.607900 98.013 -173.6885
273.576083 97.963 -173.5747
275.558528 97.914 -173.4415
277.555338 97.869 -173.2938
279.566619 97.826 -173.1396
281.592474 97.782 -172.9854
283.633009 97.737 -172.8345
285.688331 97.690 -172.6874
287.758546 97.642 -172.5397
289.843763 97.592 -172.3822
291.944090 97.543 -172.2042
294.059638 97.493 -171.9984
296.190515 97.443 -171.7674
298.336833 97.393 -171.5226
300.498705 97.343 -171.2739
302.676243 97.293 -171.0186
304.869559 97.242 -170.7426
307.078770 97.192 -170.4315
309.303989 97.142 -170.0824
311.545334 97.093 -169.7054
313.802919 97.045 -169.3124
316.076865 96.999 -168.9038
318.367288 96.955 -168.4670
320.674309 96.915 -167.9902
322.998047 96.878 -167.4736
325.338624 96.844 -166.9283
327.696162 96.815 -166.3609
330.070783 96.790 -165.7684
332.462612 96.772 -165.1496
334.871773 96.761 -164.5151
337.298392 96.757 -163.8809
339.742595 96.761 -163.2572
342.204510 96.776 -162.6481
344.684265 96.802 -162.0592
347.181989 96.842 -161.5025
349.697813 96.893 -160.9938
352.231868 96.955 -160.5496
354.784285 97.024 -160.1811
357.355198 97.098 -159.8931
359.944741 97.173 -159.6872
362.553049 97.247 -159.5604
365.180258 97.316 -159.5066
367.826505 97.377 -159.5172
370.491927 97.430 -159.5763
373.176665 97.473 -159.6667
375.880856 97.507 -159.7782
378.604644 97.532 -159.9073
381.348169 97.548 -160.0524
384.111575 97.557 -160.2093
386.895006 97.560 -160.3709
389.698607 97.560 -160.5290
392.522524 97.556 -160.6753
395.366904 97.548 -160.8049
398.231895 97.532 -160.9182
401.117648 97.509 -161.0171
404.024312 97.479 -161.0989
406.952038 97.445 -161.1554
409.900981 97.408 -161.1781
412.871292 97.371 -161.1670
415.863128 97.336 -161.1329
418.876643 97.304 -161.0884
421.911996 97.275 -161.0393
424.969344 97.248 -160.9881
428.048847 97.224 -160.9418
431.150666 97.201 -160.9131
434.274961 97.179 -160.9100
437.421897 97.156 -160.9230
440.591636 97.130 -160.9180
443.784345 97.098 -160.8481
447.000189 97.059 -160.6831
450.239337 97.012 -160.4374
453.501956 96.963 -160.1522
456.788219 96.912 -159.8618
460.098294 96.863 -159.5784
463.432356 96.820 -159.2971
466.790578 96.783 -159.0108
470.173135 96.752 -158.7210
473.580203 96.726 -158.4404
477.011961 96.701 -158.1846
480.468586 96.675 -157.9586
483.950259 96.645 -157.7543
487.457163 96.611 -157.5573
490.989478 96.572 -157.3538
494.547390 96.529 -157.1366
498.131084 96.485 -156.9051
501.740748 96.440 -156.6593
505.376568 96.394 -156.3945
509.038735 96.348 -156.1012
512.727439 96.300 -155.7745
516.442874 96.253 -155.4204
520.185232 96.208 -155.0510
523.954708 96.166 -154.6761
527.751500 96.126 -154.2982
531.575805 96.089 -153.9130
535.427822 96.052 -153.5125
539.307753 96.017 -153.0882
543.215800 95.983 -152.6388
547.152165 95.950 -152.1750
551.117055 95.920 -151.7084
555.110677 95.892 -151.2336
559.133237 95.868 -150.7372
563.184947 95.846 -150.2250
567.266018 95.826 -149.7188
571.376661 95.808 -149.2368
575.517092 95.791 -148.7844
579.687526 95.775 -148.3532
583.888181 95.761 -147.9263
588.119275 95.748 -147.4899
592.381030 95.736 -147.0411
596.673667 95.723 -146.5820
600.997410 95.709 -146.1154
605.352485 95.694 -145.6442
609.739119 95.676 -145.1731
614.157540 95.658 -144.7056
618.607979 95.639 -144.2421
623.090667 95.621 -143.7811
627.605839 95.605 -143.3217
632.153730 95.590 -142.8646
636.734576 95.577 -142.4103
641.348617 95.565 -141.9588
645.996094 95.554 -141.5086
650.677248 95.544 -141.0571
655.392323 95.534 -140.6026
660.141566 95.524 -140.1465
664.925224 95.515 -139.6922
669.743546 95.506 -139.2413
674.596784 95.496 -138.7890
679.485191 95.486 -138.3272
684.409020 95.475 -137.8520
689.368530 95.463 -137.3659
694.363979 95.451 -136.8750
699.395626 95.440 -136.3830
704.463736 95.429 -135.8902
709.568570 95.420 -135.3965
714.710396 95.412 -134.9005
719.889483 95.405 -134.3996
725.106099 95.397 -133.8938
730.360516 95.387 -133.3887
735.653010 95.374 -132.8930
740.983855 95.359 -132.4112
746.353329 95.342 -131.9398
751.761713 95.324 -131.4706
757.209288 95.306 -130.9942
762.696339 95.288 -130.5020
768.223151 95.274 -129.9902
773.790013 95.263 -129.4624
779.397214 95.256 -128.9299
785.045047 95.251 -128.4054
790.733808 95.245 -127.8980
796.463791 95.236 -127.4084
802.235296 95.224 -126.9299
808.048623 95.209 -126.4507
813.904077 95.192 -125.9541
819.801961 95.177 -125.4257
825.742584 95.163 -124.8644
831.726255 95.149 -124.2810
837.753287 95.137 -123.6873
843.823992 95.126 -123.0910
849.938689 95.117 -122.4965
856.097695 95.107 -121.9069
862.301332 95.097 -121.3273
868.549922 95.083 -120.7624
874.843793 95.067 -120.2049
881.183272 95.048 -119.6356
887.568689 95.029 -119.0362
894.000378 95.009 -118.4027
900.478673 94.990 -117.7453
907.003913 94.972 -117.0739
913.576437 94.957 -116.3921
920.196588 94.944 -115.7041
926.864712 94.932 -115.0188
933.581156 94.921 -114.3417
940.346270 94.910 -113.6668
947.160407 94.899 -112.9825
954.023921 94.891 -112.2874
960.937172 94.883 -111.5912
967.900519 94.874 -110.8979
974.914325 94.863 -110.1970
981.978956 94.849 -109.4728
989.094780 94.833 -108.7180
996.262169 94.815 -107.9366
1003.481495 94.799 -107.1425
1010.753136 94.786 -106.3554
1018.077470 94.780 -105.5863
1025.454879 94.778 -104.8311
1032.885748 94.778 -104.0812
1040.370463 94.777 -103.3322
1047.909417 94.777 -102.5846
1055.503000 94.780 -101.8400
1063.151610 94.784 -101.0958
1070.855645 94.787 -100.3431
1078.615506 94.785 -99.5655
1086.431599 94.780 -98.7489
1094.304330 94.773 -97.8944
1102.234110 94.765 -97.0141
1110.221353 94.756 -96.1208
1118.266475 94.747 -95.2247
1126.369895 94.742 -94.3318
1134.532035 94.742 -93.4460
1142.753322 94.747 -92.5707
1151.034184 94.757 -91.7040
1159.375052 94.769 -90.8409
1167.776361 94.780 -89.9756
1176.238550 94.789 -89.0975
1184.762060 94.795 -88.1945
1193.347334 94.798 -87.2615
1201.994821 94.798 -86.3042
1210.704971 94.795 -85.3339
1219.478238 94.791 -84.3621
1228.315080 94.788 -83.3968
1237.215957 94.790 -82.4377
1246.181334 94.799 -81.4761
1255.211678 94.814 -80.4968
1264.307459 94.833 -79.4884
1273.469152 94.855 -78.4576
1282.697235 94.875 -77.4225
1291.992188 94.893 -76.3915
1301.354495 94.907 -75.3548
1310.784647 94.918 -74.2945
1320.283132 94.928 -73.2003
1329.850448 94.937 -72.0755
1339.487093 94.945 -70.9346
1349.193569 94.955 -69.7917
1358.970381 94.965 -68.6519
1368.818041 94.979 -67.5138
1378.737061 94.998 -66.3745
1388.727958 95.019 -65.2307
1398.791253 95.042 -64.0772
1408.927471 95.065 -62.9032
1419.137140 95.088 -61.6982
1429.420793 95.111 -60.4668
1439.778965 95.135 -59.2324
1450.212197 95.158 -58.0217
1460.721033 95.182 -56.8466
1471.306019 95.207 -55.6976
1481.967709 95.233 -54.5506
1492.706658 95.263 -53.3823
1503.523426 95.298 -52.1840
1514.418576 95.339 -50.9594
1525.392678 95.384 -49.7094
1536.446302 95.432 -48.4272
1547.580025 95.479 -47.1080
1558.794428 95.524 -45.7586
1570.090095 95.568 -44.3954
1581.467615 95.610 -43.0299
1592.927581 95.651 -41.6624
1604.470591 95.694 -40.2872
1616.097246 95.740 -38.8961
1627.808153 95.790 -37.4756
1639.603922 95.845 -36.0107
1651.485168 95.905 -34.4966
1663.452510 95.967 -32.9463
1675.506573 96.030 -31.3806
1687.647984 96.096 -29.8146
1699.877377 96.166 -28.2472
1712.195390 96.239 -26.6635
1724.602663 96.318 -25.0442
1737.099845 96.402 -23.3781
1749.687587 96.494 -21.6681
1762.366544 96.593 -19.9261
1775.137379 96.701 -18.1630
1788.000756 96.817 -16.3839
1800.957346 96.941 -14.5877
1814.007826 97.074 -12.7712
1827.152874 97.216 -10.9360
1840.393177 97.369 -9.0905
1853.729425 97.532 -7.2436
1867.162312 97.708 -5.3988
1880.692540 97.897 -3.5591
1894.320813 98.100 -1.7330
1908.047843 98.318 0.0615
1921.874344 98.548 1.8066
1935.801038 98.789 3.4930
1949.828650 99.040 5.1160
1963.957912 99.301 6.6702
1978.189561 99.570 8.1491
1992.524338 99.844 9.5512
2006.962991 100.122 10.8860
2021.506272 100.404 12.1653
2036.154940 100.690 13.3915
2050.909758 100.982 14.5561
2065.771495 101.279 15.6468
2080.740927 101.581 16.6573
2095.818833 101.888 17.5868
2111.006001 102.197 18.4335
2126.303220 102.508 19.1944
2141.711290 102.818 19.8725
2157.231013 103.127 20.4782
2172.863198 103.436 21.0194
2188.608660 103.744 21.4932
2204.468221 104.052 21.8900
2220.442706 104.359 22.2040
2236.532950 104.662 22.4387
2252.739789 104.961 22.6006
2269.064070 105.255 22.6903
2285.506644 105.545 22.7056
2302.068367 105.830 22.6488
2318.750104 106.110 22.5247
2335.552723 106.385 22.3325
2352.477101 106.655 22.0680
2369.524119 106.919 21.7294
2386.694668 107.176 21.3182
2403.989641 107.424 20.8340
2421.409941 107.664 20.2741
2438.956476 107.894 19.6377
2456.630160 108.112 18.9305
2474.431915 108.316 18.1612
2492.362668 108.507 17.3364
2510.423356 108.683 16.4614
2528.614918 108.844 15.5422
2546.938304 108.989 14.5840
2565.394469 109.119 13.5913
2583.984375 109.231 12.5698
2602.708991 109.326 11.5283
2621.569293 109.401 10.4787
2640.566265 109.458 9.4325
2659.700897 109.495 8.4016
2678.974186 109.513 7.3990
2698.387137 109.513 6.4375
2717.940763 109.495 5.5282
2737.636082 109.460 4.6811
2757.474121 109.410 3.9050
2777.455915 109.346 3.2081
2797.582506 109.270 2.5967
2817.854942 109.182 2.0755
2838.274281 109.085 1.6473
2858.841586 108.980 1.3123
2879.557931 108.869 1.0688
2900.424394 108.753 0.9139
2921.442065 108.633 0.8447
2942.612039 108.510 0.8594
2963.935418 108.384 0.9564
2985.413316 108.257 1.1340
3007.046852 108.129 1.3901
3028.837153 108.001 1.7217
3050.785356 107.874 2.1243
3072.892604 107.748 2.5931
3095.160050 107.623 3.1237
3117.588856 107.499 3.7125
3140.180190 107.376 4.3578
3162.935230 107.255 5.0586
3185.855163 107.135 5.8136
3208.941182 107.017 6.6207
3232.194493 106.901 7.4776
3255.616307 106.787 8.3816
3279.207844 106.677 9.3295
3302.970336 106.569 10.3179
3326.905021 106.464 11.3439
3351.013146 106.361 12.4053
3375.295969 106.260 13.5008
3399.754755 106.162 14.6302
3424.390779 106.065 15.7945
3449.205326 105.969 16.9948
3474.199690 105.876 18.2315
3499.375173 105.784 19.5040
3524.733088 105.695 20.8116
3550.274757 105.608 22.1535
3576.001511 105.523 23.5293
3601.914692 105.441 24.9390
3628.015651 105.361 26.3825
3654.305748 105.284 27.8595
3680.786354 105.211 29.3690
3707.458849 105.141 30.9090
3734.324624 105.074 32.4763
3761.385080 105.012 34.0673
3788.641627 104.954 35.6797
3816.095686 104.898 37.3121
3843.748688 104.847 38.9643
3871.602076 104.798 40.6366
3899.657300 104.752 42.3291
3927.915825 104.708 44.0416
3956.379122 104.668 45.7740
3985.048676 104.631 47.5261
4013.925981 104.596 49.2981
4043.012544 104.564 51.0897
4072.309879 104.536 52.9004
4101.819515 104.510 54.7288
4131.542990 104.488 56.5735
4161.481854 104.469 58.4328
4191.637667 104.454 60.3052
4222.012001 104.441 62.1898
4252.606441 104.432 64.0861
4283.422580 104.426 65.9932
4314.462026 104.423 67.9100
4345.726396 104.423 69.8344
4377.217321 104.426 71.7639
4408.936442 104.433 73.6955
4440.885413 104.442 75.6270
4473.065899 104.454 77.5565
4505.479579 104.469 79.4827
4538.128141 104.485 81.4037
4571.013288 104.502 83.3170
4604.136735 104.520 85.2197
4637.500207 104.538 87.1090
4671.105446 104.554 88.9842
4704.954201 104.566 90.8474
4739.048239 104.574 92.7049
4773.389336 104.575 94.5682
4807.979283 104.568 96.4550
4842.819883 104.553 98.3880
4877.912952 104.532 100.3932
4913.260320 104.506 102.4947
4948.863830 104.480 104.7085
4984.725337 104.460 107.0365
5020.846712 104.450 109.4639
5057.229836 104.453 111.9637
5093.876609 104.470 114.5095
5130.788938 104.499 117.0866
5167.968750 104.542 119.6886
5205.417982 104.600 122.3036
5243.138586 104.672 124.9062
5281.132530 104.756 127.4692
5319.401793 104.848 129.9806
5357.948371 104.945 132.4463
5396.774274 105.045 134.8814
5435.881525 105.147 137.3013
5475.272163 105.253 139.7171
5514.948243 105.363 142.1338
5554.911831 105.479 144.5515
5595.165012 105.602 146.9668
5635.709884 105.733 149.3740
5676.548561 105.871 151.7663
5717.683172 106.018 154.1374
5759.115861 106.172 156.4817
5800.848789 106.334 158.7939
5842.884130 106.505 161.0682
5885.224077 106.682 163.2982
5927.870837 106.868 165.4769
5970.826633 107.060 167.5974
6014.093704 107.260 169.6521
6057.674306 107.465 171.6328
6101.570711 107.676 173.5312
6145.785208 107.891 175.3399
6190.320101 108.109 177.0538
6235.177712 108.327 178.6701
6280.360380 108.545 -179.8135
6325.870460 108.761 -178.3997
6371.710325 108.974 -177.0912
6417.882365 109.182 -175.8904
6464.388986 109.384 -174.7988
6511.232613 109.578 -173.8177
6558.415689 109.763 -172.9488
6605.940673 109.935 -172.1927
6653.810042 110.092 -171.5480
6702.026292 110.232 -171.0090
6750.591937 110.350 -170.5667
6799.509509 110.445 -170.2081
6848.781558 110.514 -169.9158
6898.410653 110.554 -169.6678
6948.399380 110.565 -169.4392
6998.750346 110.544 -169.2033
7049.466176 110.494 -168.9344
7100.549514 110.413 -168.6089
7152.003023 110.304 -168.2043
7203.829385 110.167 -167.6993
7256.031302 110.006 -167.0721
7308.611496 109.820 -166.3011
7361.572708 109.615 -165.3664
7414.917698 109.392 -164.2509
7468.649249 109.158 -162.9426
7522.770160 108.916 -161.4354
7577.283253 108.671 -159.7296
7632.191371 108.429 -157.8319
7687.497376 108.194 -155.7548
7743.204151 107.970 -153.5154
7799.314600 107.762 -151.1356
7855.831649 107.571 -148.6412
7912.758244 107.401 -146.0620
7970.097352 107.254 -143.4312
8027.851962 107.130 -140.7850
8086.025087 107.030 -138.1628
8144.619758 106.954 -135.6060
8203.639030 106.898 -133.1573
8263.085980 106.860 -130.8586
8322.963708 106.832 -128.7484
8383.275334 106.807 -126.8565
8444.024002 106.775 -125.1992
8505.212881 106.724 -123.7726
8566.845160 106.643 -122.5496
8628.924051 106.521 -121.4791
8691.452792 106.352 -120.4932
8754.434642 106.135 -119.5195
8817.872884 105.871 -118.4977
8881.770826 105.565 -117.3899
8946.131799 105.221 -116.1807
9010.959157 104.842 -114.8643
9076.256282 104.425 -113.4279
9142.026576 103.968 -111.8407
9208.273470 103.468 -110.0511
9275.000415 102.924 -107.9930
9342.210891 102.340 -105.5946
9409.908403 101.722 -102.7899
9478.096478 101.080 -99.5302
9546.778672 100.431 -95.7979
9615.958566 99.790 -91.6201
9685.639765 99.176 -87.0776
9755.825904 98.603 -82.2990
9826.520640 98.077 -77.4415
9897.727659 97.596 -72.6652
9969.450674 97.152 -68.1129
10041.693423 96.727 -63.9000
10114.459673 96.302 -60.1113
10187.753217 95.853 -56.7987
10261.577877 95.353 -53.9759
10335.937500 94.778 -51.6038
10410.835964 94.105 -49.5532
10486.277173 93.328 -47.5107
10562.265060 92.471 -44.7184
10638.803587 91.633 -39.0132
10715.896743 91.008 -21.5288
10793.548548 90.839 42.0521
10871.763050 91.220 86.3226
10950.544327 92.007 97.9534
11029.896485 92.969 102.7030
11109.823662 93.945 105.6376
11190.330024 94.866 108.1177
11271.419768 95.717 110.5895
11353.097122 96.502 113.1774
11435.366344 97.231 115.8747
11518.231722 97.914 118.6277
11601.697577 98.555 121.3793
11685.768261 99.157 124.0878
11770.448155 99.725 126.7290
11855.741674 100.263 129.2902
11941.653265 100.774 131.7587
12028.187408 101.264 134.1148
12115.348612 101.733 136.3293
12203.141422 102.177 138.3710
12291.570415 102.592 140.2206
12380.640201 102.969 141.8823
12470.355424 103.302 143.3873
12560.720760 103.591 144.7858
12651.740920 103.838 146.1320
12743.420650 104.053 147.4664
12835.764729 104.248 148.8015
12928.777972 104.436 150.1108
13022.465227 104.627 151.3263
13116.831378 104.825 152.3473
13211.881345 105.023 153.0594
13307.620084 105.205 153.3621
13404.052584 105.344 153.1938
13501.183875 105.408 152.5542
13599.019019 105.367 151.5143
13697.563116 105.192 150.2168
13796.821305 104.863 148.8615
13896.798760 104.372 147.6809
13997.500692 103.720 146.9083
14098.932352 102.920 146.7489
14201.099028 101.992 147.3618
14304.006046 100.960 148.8546
14407.658770 99.851 151.2892
14512.062604 98.691 154.6900
14617.222992 97.507 159.0486
14723.145416 96.324 164.3271
14829.835397 95.167 170.4600
14937.298497 94.056 177.3563
15045.540320 93.013 -175.1031
15154.566507 92.053 -167.0684
15264.382743 91.188 -158.7189
15374.994752 90.418 -150.2451
15486.408302 89.736 -141.8121
15598.629201 89.124 -133.5216
15711.663298 88.556 -125.3934
15825.516487 88.012 -117.3748
15940.194703 87.474 -109.3708
16055.703925 86.936 -101.2764
16172.050174 86.394 -93.0004
16289.239516 85.852 -84.4738
16407.278061 85.316 -75.6536
16526.171961 84.793 -66.5200
16645.927415 84.291 -57.0750
16766.550667 83.815 -47.3337
16888.048005 83.373 -37.3160
17010.425762 82.970 -27.0332
17133.690320 82.610 -16.4824
17257.848103 82.300 -5.6484
17382.905584 82.052 5.4836
17508.869284 81.880 16.9119
17635.745768 81.805 28.5956
17763.541652 81.848 40.4370
17892.263597 82.029 52.2595
18021.918315 82.359 63.7780
18152.512564 82.829 74.6026
18284.053153 83.405 84.3176
18416.546939 84.026 92.6139
18550.000830 84.621 99.3911
18684.421783 85.120 104.7634
18819.816805 85.472 108.9977
18956.192956 85.639 112.4355
19093.557344 85.605 115.4404
19231.917131 85.365 118.3748
19371.279531 84.937 121.5848
19511.651807 84.365 125.3770
19653.041280 83.731 129.9879
19795.455318 83.161 135.5553
19938.901348 82.815 142.1162
