* Measurement data measured by REW V5.40 beta 98
* Source: Микрофон (HiBy Digital D1), MICROPHONE (Общая громкость), R, volume: 0,250
* Format: 256k Log Swept Sine, 1 sweep at -15,0 dBFS with no timing reference
* Dated: 03.10.2025 15:52:10
* REW Settings:
*  C-weighting compensation: Off
*  Target level: 75.0 dB
* Note: 
* Measurement: HD800
* Smoothing: 1/12 octave
* Frequency Step: 96 ppo
* Start Frequency: 0.36621094 Hz
*
* Freq(Hz) SPL(dB) Phase(degrees)
0.366211 41.852 178.9897
0.368865 41.860 178.9632
0.371538 41.873 178.9240
0.374230 41.888 178.8752
0.376942 41.905 178.8200
0.379673 41.923 178.7603
0.382424 41.943 178.6976
0.385196 41.962 178.6328
0.387987 41.982 178.5663
0.390798 42.002 178.4984
0.393630 42.023 178.4294
0.396483 42.044 178.3591
0.399356 42.064 178.2877
0.402250 42.085 178.2151
0.405165 42.106 178.1414
0.408101 42.128 178.0666
0.411058 42.149 177.9906
0.414037 42.171 177.9135
0.417037 42.192 177.8352
0.420059 42.214 177.7557
0.423103 42.236 177.6750
0.426169 42.259 177.5931
0.429257 42.281 177.5099
0.432368 42.304 177.4255
0.435501 42.326 177.3399
0.438656 42.349 177.2530
0.441835 42.372 177.1648
0.445037 42.395 177.0753
0.448262 42.419 176.9845
0.451510 42.442 176.8923
0.454782 42.466 176.7989
0.458077 42.490 176.7040
0.461397 42.514 176.6078
0.464740 42.538 176.5102
0.468108 42.562 176.4112
0.471500 42.587 176.3107
0.474917 42.612 176.2089
0.478358 42.637 176.1055
0.481825 42.662 176.0007
0.485316 42.687 175.8944
0.488833 42.713 175.7865
0.492375 42.738 175.6771
0.495943 42.764 175.5662
0.499537 42.790 175.4537
0.503157 42.816 175.3396
0.506803 42.843 175.2238
0.510475 42.869 175.1064
0.514175 42.896 174.9874
0.517900 42.923 174.8667
0.521653 42.950 174.7442
0.525434 42.978 174.6200
0.529241 43.005 174.4940
0.533076 43.033 174.3663
0.536939 43.061 174.2367
0.540830 43.089 174.1052
0.544749 43.118 173.9719
0.548696 43.146 173.8367
0.552673 43.175 173.6995
0.556677 43.204 173.5603
0.560711 43.233 173.4192
0.564774 43.263 173.2759
0.568867 43.292 173.1306
0.572989 43.322 172.9832
0.577141 43.352 172.8336
0.581324 43.383 172.6818
0.585536 43.413 172.5277
0.589779 43.444 172.3714
0.594053 43.475 172.2127
0.598358 43.506 172.0516
0.602694 43.537 171.8881
0.607061 43.569 171.7222
0.611460 43.601 171.5536
0.615891 43.633 171.3825
0.620354 43.665 171.2087
0.624849 43.698 171.0322
0.629377 43.731 170.8530
0.633938 43.764 170.6709
0.638532 43.797 170.4858
0.643159 43.831 170.2979
0.647819 43.864 170.1068
0.652514 43.898 169.9127
0.657242 43.933 169.7153
0.662005 43.967 169.5147
0.666802 44.002 169.3107
0.671634 44.037 169.1032
0.676501 44.072 168.8922
0.681403 44.108 168.6775
0.686341 44.143 168.4591
0.691314 44.179 168.2368
0.696324 44.216 168.0106
0.701370 44.252 167.7803
0.706452 44.289 167.5458
0.711571 44.326 167.3070
0.716728 44.363 167.0638
0.721921 44.400 166.8160
0.727153 44.436 166.5636
0.732422 44.473 166.3063
0.737729 44.510 166.0442
0.743075 44.546 165.7772
0.748460 44.582 165.5052
0.753883 44.618 165.2284
0.759346 44.654 164.9468
0.764849 44.690 164.6604
0.770391 44.726 164.3693
0.775974 44.763 164.0735
0.781597 44.800 163.7733
0.787261 44.836 163.4686
0.792966 44.873 163.1595
0.798712 44.911 162.8462
0.804500 44.948 162.5287
0.810329 44.986 162.2072
0.816201 45.024 161.8816
0.822116 45.062 161.5520
0.828073 45.100 161.2187
0.834074 45.138 160.8816
0.840118 45.177 160.5408
0.846206 45.215 160.1965
0.852338 45.254 159.8487
0.858514 45.293 159.4974
0.864735 45.332 159.1428
0.871001 45.371 158.7849
0.877313 45.411 158.4238
0.883670 45.450 158.0595
0.890074 45.490 157.6922
0.896524 45.529 157.3218
0.903020 45.569 156.9485
0.909564 45.609 156.5722
0.916155 45.649 156.1930
0.922794 45.689 155.8110
0.929481 45.729 155.4261
0.936216 45.770 155.0385
0.943000 45.810 154.6481
0.949834 45.851 154.2549
0.956717 45.891 153.8589
0.963649 45.931 153.4602
0.970632 45.972 153.0587
0.977666 46.013 152.6544
0.984750 46.053 152.2472
0.991886 46.094 151.8372
0.999074 46.134 151.4243
1.006314 46.175 151.0084
1.013606 46.215 150.5895
1.020951 46.256 150.1674
1.028349 46.296 149.7422
1.035801 46.337 149.3135
1.043307 46.377 148.8815
1.050867 46.417 148.4457
1.058482 46.457 148.0062
1.066152 46.497 147.5625
1.073878 46.537 147.1143
1.081660 46.577 146.6611
1.089498 46.616 146.2023
1.097393 46.656 145.7370
1.105345 46.695 145.2644
1.113355 46.734 144.7836
1.121423 46.773 144.2940
1.129549 46.812 143.7953
1.137734 46.851 143.2871
1.145979 46.890 142.7696
1.154283 46.929 142.2430
1.162647 46.967 141.7074
1.171072 47.006 141.1631
1.179558 47.044 140.6103
1.188106 47.083 140.0495
1.196715 47.121 139.4810
1.205387 47.159 138.9050
1.214122 47.197 138.3219
1.222920 47.234 137.7321
1.231782 47.272 137.1360
1.240708 47.309 136.5338
1.249699 47.346 135.9260
1.258754 47.383 135.3129
1.267876 47.420 134.6948
1.277063 47.457 134.0723
1.286318 47.493 133.4455
1.295639 47.529 132.8149
1.305027 47.565 132.1809
1.314484 47.601 131.5438
1.324009 47.636 130.9039
1.333604 47.671 130.2617
1.343268 47.706 129.6174
1.353002 47.741 128.9715
1.362806 47.775 128.3241
1.372681 47.809 127.6757
1.382628 47.843 127.0265
1.392647 47.877 126.3768
1.402739 47.910 125.7267
1.412904 47.942 125.0764
1.423142 47.975 124.4258
1.433455 48.007 123.7746
1.443843 48.038 123.1222
1.454305 48.070 122.4676
1.464844 48.101 121.8092
1.475459 48.131 121.1453
1.486150 48.161 120.4741
1.496920 48.191 119.7944
1.507767 48.220 119.1051
1.518693 48.249 118.4061
1.529698 48.277 117.6970
1.540783 48.304 116.9782
1.551948 48.332 116.2499
1.563194 48.358 115.5126
1.574521 48.385 114.7666
1.585931 48.410 114.0126
1.597423 48.435 113.2510
1.608999 48.460 112.4823
1.620658 48.484 111.7072
1.632402 48.507 110.9261
1.644232 48.530 110.1397
1.656146 48.552 109.3484
1.668147 48.573 108.5529
1.680235 48.594 107.7537
1.692411 48.614 106.9514
1.704675 48.634 106.1465
1.717028 48.653 105.3395
1.729470 48.671 104.5311
1.742003 48.688 103.7215
1.754626 48.705 102.9111
1.767341 48.721 102.1002
1.780147 48.736 101.2888
1.793047 48.750 100.4764
1.806040 48.763 99.6621
1.819128 48.776 98.8443
1.832310 48.788 98.0207
1.845587 48.799 97.1885
1.858961 48.809 96.3451
1.872432 48.818 95.4884
1.886001 48.826 94.6172
1.899667 48.833 93.7309
1.913433 48.840 92.8296
1.927299 48.845 91.9136
1.941265 48.849 90.9836
1.955332 48.852 90.0405
1.969501 48.854 89.0852
1.983773 48.855 88.1190
1.998148 48.855 87.1430
2.012627 48.854 86.1584
2.027212 48.852 85.1668
2.041902 48.848 84.1694
2.056698 48.843 83.1678
2.071602 48.837 82.1635
2.086614 48.830 81.1580
2.101734 48.821 80.1529
2.116964 48.811 79.1493
2.132304 48.800 78.1485
2.147756 48.787 77.1510
2.163320 48.773 76.1568
2.178996 48.757 75.1645
2.194786 48.740 74.1719
2.210690 48.722 73.1755
2.226710 48.702 72.1714
2.242845 48.681 71.1563
2.259098 48.657 70.1279
2.275468 48.633 69.0848
2.291957 48.606 68.0265
2.308566 48.578 66.9532
2.325295 48.549 65.8655
2.342145 48.517 64.7644
2.359117 48.484 63.6513
2.376212 48.449 62.5277
2.393431 48.412 61.3955
2.410775 48.373 60.2566
2.428244 48.332 59.1133
2.445840 48.289 57.9679
2.463564 48.244 56.8227
2.481416 48.197 55.6800
2.499397 48.148 54.5419
2.517509 48.097 53.4096
2.535752 48.044 52.2834
2.554127 47.988 51.1621
2.572635 47.931 50.0431
2.591277 47.870 48.9224
2.610055 47.808 47.7961
2.628968 47.743 46.6610
2.648019 47.675 45.5147
2.667208 47.606 44.3559
2.686535 47.533 43.1843
2.706003 47.458 42.0000
2.725612 47.380 40.8039
2.745363 47.300 39.5975
2.765257 47.217 38.3826
2.785295 47.131 37.1617
2.805478 47.042 35.9375
2.825808 46.951 34.7131
2.846285 46.856 33.4918
2.866910 46.759 32.2767
2.887685 46.658 31.0705
2.908611 46.554 29.8747
2.929688 46.447 28.6892
2.950917 46.337 27.5125
2.972301 46.223 26.3415
2.993839 46.106 25.1733
3.015534 45.985 24.0051
3.037386 45.860 22.8350
3.059396 45.732 21.6618
3.081565 45.600 20.4852
3.103896 45.465 19.3055
3.126388 45.327 18.1241
3.149043 45.185 16.9428
3.171862 45.039 15.7646
3.194847 44.890 14.5930
3.217998 44.737 13.4321
3.241317 44.581 12.2868
3.264805 44.421 11.1618
3.288463 44.257 10.0614
3.312293 44.088 8.9888
3.336295 43.915 7.9459
3.360471 43.737 6.9329
3.384822 43.554 5.9494
3.409350 43.366 4.9941
3.434056 43.175 4.0661
3.458940 42.979 3.1643
3.484005 42.782 2.2883
3.509252 42.581 1.4382
3.534681 42.380 0.6151
3.560295 42.177 -0.1786
3.586094 41.975 -0.9393
3.612081 41.772 -1.6613
3.638255 41.570 -2.3368
3.664620 41.366 -2.9563
3.691175 41.162 -3.5094
3.717923 40.956 -3.9869
3.744864 40.749 -4.3827
3.772001 40.540 -4.6939
3.799335 40.332 -4.9208
3.826866 40.127 -5.0663
3.854597 39.925 -5.1354
3.882529 39.731 -5.1345
3.910664 39.546 -5.0707
3.939002 39.373 -4.9507
3.967546 39.215 -4.7795
3.996296 39.073 -4.5588
4.025255 38.950 -4.2861
4.054423 38.844 -3.9552
4.083804 38.757 -3.5601
4.113396 38.688 -3.0997
4.143204 38.637 -2.5794
4.173227 38.603 -2.0117
4.203468 38.585 -1.4144
4.233928 38.583 -0.8085
4.264609 38.597 -0.2168
4.295512 38.627 0.3391
4.326639 38.672 0.8403
4.357992 38.735 1.2732
4.389572 38.814 1.6307
4.421380 38.912 1.9117
4.453419 39.028 2.1190
4.485691 39.162 2.2554
4.518196 39.312 2.3222
4.550936 39.476 2.3186
4.583914 39.651 2.2425
4.617131 39.833 2.0909
4.650589 40.021 1.8607
4.684289 40.212 1.5492
4.718233 40.403 1.1548
4.752424 40.593 0.6776
4.786862 40.784 0.1200
4.821549 40.975 -0.5132
4.856488 41.166 -1.2151
4.891680 41.357 -1.9777
4.927127 41.549 -2.7928
4.962831 41.739 -3.6528
4.998794 41.928 -4.5515
5.035017 42.114 -5.4842
5.071503 42.297 -6.4483
5.108253 42.476 -7.4430
5.145270 42.650 -8.4684
5.182555 42.820 -9.5244
5.220110 42.985 -10.6090
5.257937 43.147 -11.7178
5.296038 43.305 -12.8445
5.334415 43.458 -13.9821
5.373071 43.608 -15.1240
5.412006 43.754 -16.2651
5.451224 43.896 -17.4022
5.490725 44.033 -18.5348
5.530514 44.167 -19.6637
5.570590 44.296 -20.7901
5.610957 44.421 -21.9135
5.651616 44.542 -23.0314
5.692570 44.660 -24.1398
5.733821 44.774 -25.2341
5.775370 44.884 -26.3101
5.817221 44.992 -27.3649
5.859375 45.096 -28.3971
5.901834 45.197 -29.4073
5.944602 45.295 -30.3964
5.987679 45.390 -31.3650
6.031068 45.483 -32.3123
6.074771 45.573 -33.2368
6.118792 45.660 -34.1363
6.163131 45.745 -35.0089
6.207792 45.829 -35.8533
6.252776 45.911 -36.6691
6.298086 45.991 -37.4569
6.343725 46.069 -38.2172
6.389694 46.146 -38.9506
6.435996 46.222 -39.6571
6.482634 46.296 -40.3366
6.529610 46.369 -40.9887
6.576926 46.441 -41.6132
6.624585 46.512 -42.2103
6.672590 46.583 -42.7800
6.720942 46.652 -43.3227
6.769645 46.721 -43.8386
6.818700 46.789 -44.3279
6.868111 46.856 -44.7905
6.917881 46.923 -45.2265
6.968010 46.989 -45.6359
7.018504 47.055 -46.0186
7.069362 47.120 -46.3746
7.120590 47.184 -46.7036
7.172189 47.249 -47.0053
7.224161 47.313 -47.2791
7.276511 47.378 -47.5246
7.329239 47.442 -47.7414
7.382350 47.507 -47.9295
7.435845 47.573 -48.0890
7.489729 47.639 -48.2200
7.544002 47.706 -48.3229
7.598669 47.775 -48.3979
7.653732 47.846 -48.4453
7.709194 47.920 -48.4658
7.765058 47.996 -48.4603
7.821327 48.075 -48.4307
7.878004 48.157 -48.3800
7.935091 48.243 -48.3114
7.992592 48.334 -48.2284
8.050510 48.429 -48.1340
8.108847 48.529 -48.0313
8.167607 48.635 -47.9241
8.226793 48.745 -47.8174
8.286408 48.860 -47.7170
8.346454 48.980 -47.6290
8.406936 49.104 -47.5586
8.467856 49.233 -47.5101
8.529218 49.366 -47.4870
8.591024 49.503 -47.4935
8.653278 49.642 -47.5339
8.715983 49.783 -47.6127
8.779143 49.926 -47.7333
8.842760 50.068 -47.8977
8.906839 50.210 -48.1064
8.971381 50.351 -48.3594
9.036392 50.489 -48.6564
9.101873 50.623 -48.9969
9.167829 50.754 -49.3801
9.234263 50.879 -49.8039
9.301178 50.998 -50.2651
9.368578 51.110 -50.7589
9.436467 51.215 -51.2804
9.504847 51.312 -51.8247
9.573723 51.400 -52.3873
9.643099 51.479 -52.9631
9.712976 51.547 -53.5455
9.783361 51.605 -54.1266
9.854255 51.651 -54.6990
9.925663 51.686 -55.2556
9.997588 51.708 -55.7905
10.070035 51.718 -56.2969
10.143007 51.717 -56.7673
10.216507 51.704 -57.1943
10.290540 51.681 -57.5714
10.365109 51.650 -57.8941
10.440219 51.615 -58.1591
10.515873 51.581 -58.3639
10.592076 51.552 -58.5069
10.668830 51.531 -58.5882
10.746141 51.519 -58.6107
10.824012 51.516 -58.5803
10.902447 51.520 -58.5050
10.981451 51.529 -58.3947
11.061027 51.544 -58.2599
11.141180 51.564 -58.1131
11.221913 51.593 -57.9686
11.303232 51.632 -57.8414
11.385140 51.685 -57.7452
11.467641 51.750 -57.6917
11.550741 51.828 -57.6911
11.634442 51.914 -57.7519
11.718750 52.006 -57.8808
11.803669 52.099 -58.0806
11.889203 52.191 -58.3511
11.975357 52.277 -58.6889
12.062136 52.353 -59.0888
12.149543 52.418 -59.5439
12.237583 52.472 -60.0449
12.326262 52.517 -60.5804
12.415583 52.556 -61.1375
12.505552 52.591 -61.7035
12.596172 52.623 -62.2663
12.687449 52.651 -62.8131
12.779387 52.674 -63.3315
12.871992 52.691 -63.8109
12.965268 52.704 -64.2435
13.059220 52.714 -64.6242
13.153852 52.724 -64.9504
13.249170 52.735 -65.2230
13.345179 52.752 -65.4469
13.441884 52.776 -65.6315
13.539289 52.810 -65.7888
13.637401 52.854 -65.9331
13.736223 52.910 -66.0799
13.835761 52.974 -66.2454
13.936021 53.043 -66.4448
14.037007 53.116 -66.6898
14.138725 53.192 -66.9883
14.241180 53.269 -67.3442
14.344377 53.346 -67.7566
14.448323 53.422 -68.2194
14.553021 53.494 -68.7209
14.658478 53.558 -69.2457
14.764700 53.612 -69.7755
14.871691 53.654 -70.2893
14.979457 53.684 -70.7641
15.088005 53.703 -71.1780
15.197339 53.715 -71.5118
15.307465 53.723 -71.7497
15.418389 53.733 -71.8817
15.530117 53.751 -71.9060
15.642655 53.781 -71.8309
15.756008 53.827 -71.6744
15.870182 53.892 -71.4637
15.985184 53.980 -71.2342
16.101019 54.091 -71.0262
16.217694 54.225 -70.8797
16.335214 54.378 -70.8300
16.453586 54.544 -70.9052
16.572815 54.716 -71.1231
16.692909 54.886 -71.4885
16.813872 55.047 -71.9948
16.935713 55.193 -72.6251
17.058436 55.319 -73.3529
17.182048 55.423 -74.1440
17.306556 55.503 -74.9597
17.431967 55.559 -75.7585
17.558286 55.592 -76.4976
17.685521 55.603 -77.1362
17.813677 55.598 -77.6390
17.942762 55.582 -77.9783
18.072783 55.563 -78.1379
18.203746 55.552 -78.1173
18.335658 55.557 -77.9331
18.468526 55.584 -77.6189
18.602356 55.640 -77.2239
18.737156 55.726 -76.8073
18.872934 55.839 -76.4293
19.009695 55.977 -76.1454
19.147447 56.133 -75.9983
19.286197 56.299 -76.0137
19.425953 56.467 -76.2000
19.566721 56.627 -76.5498
19.708510 56.773 -77.0421
19.851326 56.900 -77.6472
19.995177 57.005 -78.3305
20.140070 57.087 -79.0551
20.286013 57.147 -79.7857
20.433014 57.187 -80.4900
20.581080 57.207 -81.1403
20.730219 57.210 -81.7140
20.880439 57.199 -82.1937
21.031747 57.177 -82.5662
21.184152 57.148 -82.8209
21.337661 57.117 -82.9491
21.492282 57.087 -82.9430
21.648024 57.061 -82.7958
21.804895 57.046 -82.5037
21.962902 57.047 -82.0694
22.122054 57.072 -81.5064
22.282360 57.128 -80.8448
22.443827 57.219 -80.1332
22.606464 57.348 -79.4385
22.770280 57.513 -78.8405
22.935283 57.711 -78.4204
23.101481 57.933 -78.2503
23.268884 58.170 -78.3807
23.437500 58.408 -78.8341
23.607338 58.633 -79.6032
23.778406 58.830 -80.6518
23.950714 58.988 -81.9201
24.124271 59.098 -83.3296
24.299086 59.153 -84.7883
24.475167 59.154 -86.1958
24.652524 59.103 -87.4487
24.831166 59.008 -88.4486
25.011103 58.881 -89.1105
25.192344 58.741 -89.3772
25.374898 58.611 -89.2333
25.558775 58.514 -88.7173
25.743984 58.467 -87.9243
25.930536 58.482 -86.9924
26.118439 58.558 -86.0750
26.307704 58.685 -85.3055
26.498341 58.845 -84.7717
26.690359 59.019 -84.5053
26.883768 59.191 -84.4876
27.078579 59.348 -84.6655
27.274801 59.485 -84.9694
27.472446 59.602 -85.3299
27.671522 59.702 -85.6903
27.872042 59.792 -86.0144
28.074014 59.879 -86.2901
28.277450 59.968 -86.5266
28.482360 60.063 -86.7478
28.688755 60.163 -86.9830
28.896645 60.267 -87.2577
29.106042 60.371 -87.5868
29.316957 60.469 -87.9721
29.529400 60.560 -88.4049
29.743382 60.641 -88.8692
29.958915 60.713 -89.3475
30.176009 60.777 -89.8249
30.394677 60.835 -90.2908
30.614929 60.887 -90.7390
30.836778 60.935 -91.1655
31.060234 60.978 -91.5662
31.285309 61.017 -91.9353
31.512015 61.051 -92.2654
31.740364 61.084 -92.5495
31.970368 61.116 -92.7841
32.202039 61.152 -92.9721
32.435388 61.193 -93.1235
32.670428 61.241 -93.2536
32.907171 61.296 -93.3789
33.145630 61.356 -93.5117
33.385817 61.419 -93.6563
33.627745 61.483 -93.8080
33.871425 61.547 -93.9556
34.116871 61.611 -94.0868
34.364096 61.678 -94.1944
34.613113 61.749 -94.2803
34.863934 61.827 -94.3567
35.116572 61.912 -94.4427
35.371041 62.003 -94.5579
35.627354 62.097 -94.7163
35.885525 62.192 -94.9220
36.145566 62.284 -95.1697
36.407492 62.372 -95.4478
36.671316 62.456 -95.7432
36.937051 62.536 -96.0454
37.204712 62.613 -96.3476
37.474313 62.687 -96.6453
37.745867 62.758 -96.9332
38.019389 62.825 -97.2034
38.294893 62.888 -97.4459
38.572394 62.950 -97.6527
38.851905 63.011 -97.8228
39.133442 63.075 -97.9657
39.417019 63.142 -98.1001
39.702651 63.212 -98.2476
39.990353 63.281 -98.4234
40.280140 63.349 -98.6287
40.572026 63.410 -98.8492
40.866028 63.467 -99.0605
41.162160 63.520 -99.2400
41.460438 63.574 -99.3786
41.760877 63.634 -99.4868
42.063494 63.702 -99.5928
42.368303 63.779 -99.7307
42.675322 63.860 -99.9255
42.984565 63.940 -100.1826
43.296048 64.015 -100.4869
43.609789 64.083 -100.8108
43.925804 64.144 -101.1269
44.244108 64.202 -101.4197
44.564719 64.261 -101.6892
44.887654 64.323 -101.9475
45.212928 64.388 -102.2104
45.540560 64.455 -102.4892
45.870565 64.524 -102.7891
46.202962 64.594 -103.1113
46.537768 64.663 -103.4567
46.875000 64.732 -103.8269
47.214676 64.799 -104.2214
47.556813 64.864 -104.6315
47.901429 64.925 -105.0387
48.248542 64.983 -105.4181
48.598171 65.040 -105.7474
48.950334 65.100 -106.0172
49.305048 65.164 -106.2353
49.662333 65.235 -106.4248
50.022206 65.311 -106.6144
50.384688 65.390 -106.8289
50.749796 65.470 -107.0814
51.117550 65.549 -107.3730
51.487969 65.625 -107.6951
51.861072 65.699 -108.0344
52.236879 65.771 -108.3777
52.615409 65.841 -108.7155
52.996681 65.911 -109.0446
53.380717 65.982 -109.3688
53.767536 66.053 -109.6955
54.157158 66.125 -110.0313
54.549603 66.195 -110.3770
54.944892 66.262 -110.7271
55.343045 66.326 -111.0728
55.744084 66.389 -111.4081
56.148028 66.453 -111.7339
56.554900 66.521 -112.0574
56.964720 66.591 -112.3888
57.377510 66.663 -112.7353
57.793291 66.734 -113.0986
58.212085 66.802 -113.4749
58.633914 66.869 -113.8577
59.058799 66.936 -114.2415
59.486764 67.003 -114.6239
59.917829 67.071 -115.0055
60.352019 67.141 -115.3886
60.789354 67.210 -115.7754
61.229859 67.277 -116.1667
61.673556 67.342 -116.5625
62.120468 67.406 -116.9622
62.570618 67.469 -117.3653
63.024031 67.533 -117.7708
63.480729 67.597 -118.1764
63.940736 67.661 -118.5797
64.404077 67.725 -118.9803
64.870776 67.788 -119.3800
65.340856 67.849 -119.7826
65.814343 67.910 -120.1916
66.291261 67.970 -120.6090
66.771635 68.032 -121.0357
67.255489 68.096 -121.4716
67.742850 68.161 -121.9164
68.233743 68.228 -122.3696
68.728193 68.294 -122.8307
69.226226 68.358 -123.2996
69.727867 68.420 -123.7762
70.233144 68.477 -124.2599
70.742083 68.531 -124.7485
71.254709 68.581 -125.2382
71.771050 68.630 -125.7248
72.291132 68.679 -126.2050
72.814984 68.731 -126.6775
73.342631 68.787 -127.1441
73.874102 68.848 -127.6093
74.409424 68.914 -128.0793
74.948626 68.981 -128.5575
75.491734 69.047 -129.0433
76.038779 69.111 -129.5327
76.589787 69.171 -130.0214
77.144788 69.228 -130.5072
77.703811 69.282 -130.9895
78.266885 69.332 -131.4706
78.834039 69.380 -131.9570
79.405303 69.427 -132.4595
79.980706 69.472 -132.9873
80.560280 69.514 -133.5407
81.144053 69.553 -134.1113
81.732056 69.590 -134.6883
82.324320 69.626 -135.2650
82.920876 69.664 -135.8403
83.521755 69.704 -136.4159
84.126988 69.746 -136.9932
84.736607 69.790 -137.5723
85.350643 69.834 -138.1515
85.969129 69.878 -138.7286
86.592097 69.920 -139.3020
87.219579 69.960 -139.8721
87.851608 69.997 -140.4410
88.488217 70.032 -141.0123
89.129439 70.064 -141.5902
89.775308 70.094 -142.1776
90.425856 70.120 -142.7747
91.081119 70.144 -143.3795
91.741131 70.167 -143.9893
92.405925 70.189 -144.6014
93.075536 70.213 -145.2133
93.750000 70.237 -145.8223
94.429351 70.263 -146.4272
95.113625 70.290 -147.0276
95.802858 70.317 -147.6243
96.497085 70.344 -148.2196
97.196342 70.368 -148.8163
97.900667 70.390 -149.4158
98.610096 70.410 -150.0163
99.324665 70.427 -150.6141
100.044413 70.444 -151.2068
100.769376 70.460 -151.7944
101.499592 70.476 -152.3783
102.235100 70.493 -152.9612
102.975938 70.509 -153.5452
103.722144 70.524 -154.1323
104.473757 70.537 -154.7238
105.230817 70.548 -155.3218
105.993363 70.556 -155.9285
106.761435 70.561 -156.5421
107.535072 70.563 -157.1566
108.314315 70.563 -157.7651
109.099206 70.562 -158.3656
109.889783 70.560 -158.9604
110.686090 70.558 -159.5519
111.488167 70.553 -160.1415
112.296056 70.547 -160.7289
113.109800 70.540 -161.3138
113.929440 70.534 -161.8968
114.755020 70.529 -162.4790
115.586582 70.525 -163.0609
116.424170 70.523 -163.6420
117.267827 70.520 -164.2202
118.117598 70.515 -164.7923
118.973527 70.505 -165.3561
119.835658 70.493 -165.9124
120.704037 70.477 -166.4632
121.578708 70.461 -167.0094
122.459718 70.444 -167.5505
123.347111 70.428 -168.0867
124.240935 70.412 -168.6188
125.141236 70.397 -169.1480
126.048061 70.381 -169.6750
126.961458 70.364 -170.1999
127.881473 70.347 -170.7218
128.808154 70.327 -171.2398
129.741551 70.305 -171.7537
130.681712 70.282 -172.2634
131.628686 70.257 -172.7690
132.582521 70.232 -173.2693
133.543269 70.206 -173.7628
134.510979 70.182 -174.2491
135.485701 70.157 -174.7293
136.467486 70.132 -175.2050
137.456386 70.105 -175.6776
138.452451 70.076 -176.1477
139.455735 70.045 -176.6150
140.466288 70.011 -177.0784
141.484165 69.975 -177.5370
142.509418 69.940 -177.9900
143.542100 69.904 -178.4366
144.582265 69.868 -178.8754
145.629968 69.833 -179.3053
146.685262 69.798 -179.7254
147.748204 69.763 179.8636
148.818849 69.728 179.4602
149.897251 69.693 179.0628
150.983469 69.660 178.6702
152.077557 69.627 178.2827
153.179574 69.596 177.9001
154.289576 69.567 177.5223
155.407622 69.538 177.1489
156.533770 69.510 176.7797
157.668078 69.480 176.4141
158.810606 69.449 176.0510
159.961413 69.415 175.6890
161.120559 69.379 175.3286
162.288105 69.342 174.9713
163.464112 69.303 174.6195
164.648640 69.264 174.2750
165.841752 69.225 173.9393
167.043510 69.184 173.6127
168.253976 69.141 173.2944
169.473213 69.096 172.9828
170.701286 69.048 172.6763
171.938258 68.996 172.3738
173.184194 68.942 172.0760
174.439158 68.884 171.7844
175.703216 68.824 171.4995
176.976434 68.762 171.2208
178.258878 68.699 170.9469
179.550615 68.636 170.6769
180.851713 68.575 170.4105
182.162239 68.518 170.1480
183.482262 68.467 169.8906
184.811850 68.421 169.6400
186.151073 68.382 169.3977
187.500000 68.348 169.1636
188.858702 68.317 168.9359
190.227250 68.288 168.7125
191.605715 68.258 168.4918
192.994169 68.228 168.2726
194.392685 68.196 168.0555
195.801334 68.162 167.8422
197.220191 68.126 167.6344
198.649330 68.088 167.4331
200.088825 68.047 167.2381
201.538751 68.004 167.0489
202.999184 67.961 166.8646
204.470200 67.916 166.6848
205.951875 67.871 166.5093
207.444287 67.825 166.3380
208.947514 67.778 166.1706
210.461634 67.731 166.0068
211.986726 67.683 165.8475
213.522869 67.636 165.6941
215.070144 67.589 165.5473
216.628631 67.544 165.4072
218.198411 67.498 165.2724
219.779567 67.452 165.1411
221.372180 67.406 165.0112
222.976334 67.360 164.8815
224.592112 67.314 164.7522
226.219600 67.268 164.6246
227.858880 67.222 164.5005
229.510039 67.177 164.3813
231.173164 67.131 164.2671
232.848340 67.086 164.1568
234.535655 67.040 164.0485
236.235197 66.995 163.9405
237.947054 66.950 163.8315
239.671317 66.906 163.7215
241.408074 66.862 163.6119
243.157416 66.819 163.5041
244.919435 66.775 163.3989
246.694223 66.732 163.2969
248.481871 66.687 163.1991
250.282473 66.643 163.1062
252.096123 66.598 163.0169
253.922915 66.553 162.9286
255.762945 66.507 162.8391
257.616309 66.461 162.7473
259.483103 66.414 162.6535
261.363424 66.366 162.5577
263.257372 66.317 162.4589
265.165043 66.267 162.3566
267.086538 66.217 162.2515
269.021957 66.165 162.1450
270.971401 66.112 162.0401
272.934972 66.055 161.9409
274.912771 65.996 161.8533
276.904902 65.934 161.7833
278.911469 65.869 161.7360
280.932577 65.803 161.7147
282.968330 65.735 161.7199
285.018835 65.668 161.7500
287.084199 65.602 161.8029
289.164530 65.538 161.8770
291.259935 65.475 161.9706
293.370525 65.415 162.0807
295.496408 65.358 162.2029
297.637697 65.304 162.3329
299.794503 65.252 162.4677
301.966937 65.201 162.6046
304.155114 65.152 162.7413
306.359147 65.104 162.8746
308.579152 65.056 163.0018
310.815244 65.010 163.1216
313.067539 64.964 163.2335
315.336156 64.918 163.3386
317.621211 64.873 163.4391
319.922826 64.827 163.5371
322.241118 64.780 163.6342
324.576210 64.733 163.7311
326.928223 64.684 163.8290
329.297280 64.634 163.9302
331.683504 64.583 164.0381
334.087019 64.529 164.1564
336.507952 64.474 164.2897
338.946427 64.417 164.4425
341.402572 64.358 164.6186
343.876516 64.298 164.8199
346.368387 64.237 165.0465
348.878315 64.176 165.2974
351.406431 64.116 165.5709
353.952867 64.057 165.8657
356.517756 64.000 166.1800
359.101230 63.946 166.5117
361.703426 63.896 166.8591
364.324478 63.848 167.2211
366.964523 63.804 167.5970
369.623699 63.761 167.9863
372.302145 63.719 168.3892
375.000000 63.677 168.8061
377.717405 63.635 169.2382
380.454501 63.594 169.6884
383.211431 63.553 170.1613
385.988339 63.514 170.6645
388.785369 63.478 171.2059
391.602668 63.445 171.7935
394.440383 63.418 172.4334
397.298660 63.397 173.1294
400.177650 63.384 173.8830
403.077502 63.384 174.6929
405.998368 63.398 175.5528
408.940400 63.431 176.4476
411.903750 63.485 177.3511
414.888575 63.564 178.2261
417.895028 63.667 179.0274
420.923268 63.794 179.7070
423.973452 63.938 -179.7797
427.045738 64.095 -179.4673
430.140287 64.256 -179.3759
433.257261 64.413 -179.5077
436.396822 64.556 -179.8463
439.559133 64.680 179.6411
442.744360 64.781 178.9978
445.952668 64.856 178.2712
449.184225 64.905 177.5070
452.439199 64.930 176.7451
455.717760 64.935 176.0173
459.020079 64.921 175.3470
462.346327 64.892 174.7494
465.696680 64.852 174.2314
469.071310 64.803 173.7933
472.470394 64.748 173.4304
475.894109 64.689 173.1360
479.342634 64.629 172.9026
482.816148 64.568 172.7232
486.314833 64.506 172.5918
489.838871 64.446 172.5028
493.388445 64.386 172.4510
496.963741 64.328 172.4309
500.564945 64.271 172.4374
504.192245 64.217 172.4657
507.845830 64.165 172.5118
511.525890 64.115 172.5729
515.232618 64.068 172.6478
518.966206 64.023 172.7363
522.726849 63.980 172.8380
526.514743 63.939 172.9529
530.330086 63.898 173.0795
534.173076 63.857 173.2163
538.043915 63.817 173.3612
541.942803 63.778 173.5127
545.869944 63.741 173.6699
549.825542 63.706 173.8332
553.809805 63.673 174.0029
557.822939 63.642 174.1782
561.865154 63.612 174.3575
565.936660 63.582 174.5393
570.037671 63.553 174.7233
574.168399 63.523 174.9097
578.329060 63.494 175.0994
582.519870 63.465 175.2935
586.741049 63.435 175.4929
590.992817 63.406 175.6971
595.275394 63.378 175.9045
599.589005 63.350 176.1132
603.933874 63.324 176.3218
608.310228 63.300 176.5300
612.718295 63.276 176.7380
617.158304 63.254 176.9464
621.630488 63.232 177.1561
626.135079 63.210 177.3682
630.672311 63.189 177.5834
635.242423 63.167 177.8018
639.845651 63.146 178.0231
644.482237 63.125 178.2470
649.152421 63.106 178.4728
653.856447 63.088 178.6994
658.594560 63.072 178.9263
663.367008 63.057 179.1530
668.174039 63.044 179.3792
673.015903 63.030 179.6047
677.892854 63.015 179.8296
682.805145 62.999 -179.9455
687.753032 62.983 -179.7197
692.736774 62.967 -179.4917
697.756631 62.950 -179.2599
702.812863 62.934 -179.0229
707.905735 62.918 -178.7805
713.035511 62.903 -178.5343
718.202461 62.887 -178.2873
723.406852 62.871 -178.0418
728.648956 62.855 -177.7983
733.929047 62.839 -177.5556
739.247399 62.823 -177.3125
744.604290 62.807 -177.0687
750.000000 62.792 -176.8238
755.434809 62.777 -176.5773
760.909001 62.763 -176.3294
766.422861 62.749 -176.0806
771.976677 62.736 -175.8320
777.570739 62.723 -175.5855
783.205337 62.710 -175.3424
788.880766 62.699 -175.1023
794.597321 62.689 -174.8636
800.355301 62.679 -174.6236
806.155005 62.670 -174.3806
811.996736 62.660 -174.1341
817.880799 62.649 -173.8846
823.807501 62.637 -173.6322
829.777150 62.624 -173.3763
835.790057 62.610 -173.1155
841.846536 62.596 -172.8488
847.946903 62.580 -172.5767
854.091476 62.565 -172.3015
860.280575 62.549 -172.0259
866.514523 62.533 -171.7515
872.793644 62.516 -171.4774
879.118267 62.500 -171.2014
885.488720 62.483 -170.9219
891.905336 62.466 -170.6380
898.368450 62.450 -170.3496
904.878398 62.434 -170.0570
911.435520 62.418 -169.7612
918.040157 62.401 -169.4637
924.692655 62.384 -169.1654
931.393359 62.366 -168.8666
938.142619 62.348 -168.5661
944.940787 62.329 -168.2623
951.788218 62.310 -167.9533
958.685268 62.290 -167.6380
965.632296 62.269 -167.3155
972.629666 62.248 -166.9849
979.677741 62.226 -166.6458
986.776890 62.203 -166.2989
993.927482 62.180 -165.9456
1001.129891 62.157 -165.5868
1008.384491 62.134 -165.2229
1015.691660 62.111 -164.8546
1023.051781 62.089 -164.4825
1030.465236 62.066 -164.1062
1037.932411 62.043 -163.7250
1045.453698 62.020 -163.3384
1053.029486 61.995 -162.9467
1060.660172 61.970 -162.5504
1068.346153 61.945 -162.1493
1076.087829 61.920 -161.7418
1083.885605 61.896 -161.3265
1091.739887 61.873 -160.9023
1099.651084 61.852 -160.4691
1107.619609 61.833 -160.0276
1115.645878 61.817 -159.5802
1123.730308 61.803 -159.1302
1131.873321 61.791 -158.6799
1140.075341 61.781 -158.2296
1148.336797 61.773 -157.7780
1156.658119 61.767 -157.3232
1165.039741 61.762 -156.8648
1173.482099 61.760 -156.4033
1181.985634 61.760 -155.9391
1190.550789 61.763 -155.4721
1199.178011 61.769 -155.0020
1207.867749 61.776 -154.5289
1216.620457 61.785 -154.0533
1225.436590 61.794 -153.5751
1234.316609 61.802 -153.0938
1243.260976 61.806 -152.6078
1252.270157 61.805 -152.1157
1261.344623 61.799 -151.6174
1270.484846 61.789 -151.1141
1279.691303 61.775 -150.6086
1288.964474 61.759 -150.1037
1298.304842 61.743 -149.6007
1307.712894 61.729 -149.0992
1317.189120 61.717 -148.5969
1326.734016 61.708 -148.0913
1336.348077 61.702 -147.5803
1346.031806 61.701 -147.0636
1355.785708 61.704 -146.5431
1365.610290 61.710 -146.0216
1375.506065 61.718 -145.4991
1385.473549 61.727 -144.9740
1395.513261 61.737 -144.4457
1405.625726 61.749 -143.9148
1415.811469 61.761 -143.3815
1426.071023 61.774 -142.8451
1436.404921 61.789 -142.3046
1446.813703 61.804 -141.7593
1457.297912 61.820 -141.2088
1467.858093 61.836 -140.6530
1478.494798 61.852 -140.0915
1489.208581 61.868 -139.5234
1500.000000 61.884 -138.9470
1510.869618 61.900 -138.3622
1521.818002 61.916 -137.7707
1532.845723 61.932 -137.1741
1543.953355 61.947 -136.5712
1555.141477 61.963 -135.9587
1566.410674 61.978 -135.3337
1577.761531 61.993 -134.6960
1589.194642 62.009 -134.0475
1600.710601 62.023 -133.3889
1612.310010 62.037 -132.7175
1623.993473 62.050 -132.0301
1635.761599 62.062 -131.3244
1647.615002 62.075 -130.5996
1659.554299 62.090 -129.8560
1671.580114 62.106 -129.0950
1683.693072 62.123 -128.3170
1695.893807 62.142 -127.5205
1708.182952 62.162 -126.7040
1720.561150 62.185 -125.8687
1733.029045 62.208 -125.0185
1745.587288 62.233 -124.1568
1758.236533 62.258 -123.2823
1770.977440 62.282 -122.3902
1783.810673 62.305 -121.4746
1796.736900 62.329 -120.5309
1809.756796 62.352 -119.5569
1822.871040 62.377 -118.5509
1836.080315 62.403 -117.5072
1849.385310 62.431 -116.4153
1862.786718 62.461 -115.2652
1876.285239 62.495 -114.0540
1889.881575 62.535 -112.7858
1903.576436 62.581 -111.4654
1917.370535 62.635 -110.0931
1931.264593 62.697 -108.6681
1945.259332 62.769 -107.1930
1959.355483 62.852 -105.6731
1973.553781 62.947 -104.1138
1987.854965 63.054 -102.5168
2002.259781 63.176 -100.8827
2016.768981 63.312 -99.2160
2031.383320 63.463 -97.5268
2046.103561 63.631 -95.8285
2060.930471 63.815 -94.1317
2075.864823 64.016 -92.4434
2090.907395 64.233 -90.7709
2106.058972 64.468 -89.1247
2121.320344 64.721 -87.5151
2136.692305 64.993 -85.9512
2152.175658 65.284 -84.4426
2167.771210 65.594 -83.0009
2183.479774 65.920 -81.6412
2199.302169 66.261 -80.3767
2215.239219 66.617 -79.2162
2231.291755 66.984 -78.1669
2247.460615 67.362 -77.2373
2263.746641 67.748 -76.4340
2280.150683 68.143 -75.7568
2296.673595 68.543 -75.2017
2313.316238 68.950 -74.7674
2330.079481 69.362 -74.4549
2346.964198 69.778 -74.2644
2363.971268 70.197 -74.1938
2381.101578 70.619 -74.2435
2398.356022 71.043 -74.4169
2415.735498 71.469 -74.7172
2433.240913 71.896 -75.1474
2450.873180 72.322 -75.7124
2468.633217 72.747 -76.4167
2486.521951 73.169 -77.2633
2504.540314 73.588 -78.2531
2522.689246 74.002 -79.3883
2540.969692 74.409 -80.6719
2559.382606 74.809 -82.1057
2577.928947 75.199 -83.6894
2596.609683 75.576 -85.4217
2615.425787 75.940 -87.3013
2634.378241 76.287 -89.3247
2653.468031 76.615 -91.4876
2672.696154 76.922 -93.7850
2692.063613 77.206 -96.2083
2711.571415 77.463 -98.7434
2731.220579 77.692 -101.3727
2751.012130 77.892 -104.0775
2770.947098 78.063 -106.8367
2791.026522 78.203 -109.6285
2811.251451 78.312 -112.4320
2831.622938 78.392 -115.2289
2852.142045 78.443 -118.0022
2872.809842 78.464 -120.7344
2893.627406 78.458 -123.4088
2914.595823 78.426 -126.0093
2935.716186 78.369 -128.5197
2956.989596 78.289 -130.9245
2978.417161 78.188 -133.2096
3000.000000 78.070 -135.3624
3021.739237 77.938 -137.3731
3043.636005 77.795 -139.2367
3065.691446 77.646 -140.9559
3087.906710 77.496 -142.5424
3110.282955 77.348 -144.0174
3132.821347 77.203 -145.4092
3155.523062 77.062 -146.7456
3178.389283 76.922 -148.0465
3201.421202 76.779 -149.3192
3224.620020 76.632 -150.5585
3247.986946 76.478 -151.7516
3271.523198 76.316 -152.8842
3295.230004 76.148 -153.9448
3319.108599 75.975 -154.9251
3343.160228 75.799 -155.8205
3367.386145 75.621 -156.6300
3391.787613 75.442 -157.3554
3416.365904 75.265 -158.0013
3441.122300 75.089 -158.5738
3466.058091 74.918 -159.0800
3491.174576 74.749 -159.5260
3516.473066 74.585 -159.9175
3541.954880 74.425 -160.2589
3567.621345 74.270 -160.5534
3593.473800 74.118 -160.8038
3619.513592 73.971 -161.0128
3645.742080 73.829 -161.1834
3672.160630 73.690 -161.3185
3698.770620 73.556 -161.4213
3725.573436 73.426 -161.4947
3752.570477 73.300 -161.5410
3779.763150 73.177 -161.5616
3807.152872 73.058 -161.5567
3834.741071 72.941 -161.5249
3862.529185 72.827 -161.4644
3890.518664 72.714 -161.3732
3918.710966 72.603 -161.2499
3947.107561 72.494 -161.0941
3975.709929 72.387 -160.9055
4004.519563 72.283 -160.6851
4033.537962 72.181 -160.4350
4062.766641 72.081 -160.1577
4092.207123 71.984 -159.8563
4121.860942 71.890 -159.5337
4151.729646 71.800 -159.1921
4181.814790 71.713 -158.8334
4212.117944 71.630 -158.4590
4242.640687 71.551 -158.0701
4273.384610 71.475 -157.6673
4304.351317 71.403 -157.2506
4335.542421 71.334 -156.8198
4366.959549 71.268 -156.3753
4398.604338 71.206 -155.9177
4430.478438 71.148 -155.4480
4462.583511 71.095 -154.9680
4494.921231 71.048 -154.4802
4527.493283 71.006 -153.9886
4560.301365 70.971 -153.4987
4593.347189 70.941 -153.0166
4626.632476 70.918 -152.5486
4660.158962 70.899 -152.1006
4693.928395 70.886 -151.6784
4727.942535 70.876 -151.2865
4762.203156 70.870 -150.9282
4796.712043 70.865 -150.6050
4831.470996 70.861 -150.3164
4866.481826 70.856 -150.0591
4901.746360 70.848 -149.8272
4937.266434 70.836 -149.6116
4973.043902 70.821 -149.4008
5009.080628 70.800 -149.1818
5045.378492 70.775 -148.9418
5081.939384 70.746 -148.6694
5118.765212 70.715 -148.3554
5155.857894 70.684 -147.9947
5193.219366 70.655 -147.5861
5230.851574 70.631 -147.1332
5268.756481 70.614 -146.6432
5306.936062 70.606 -146.1263
5345.392309 70.610 -145.5943
5384.127225 70.626 -145.0604
5423.142830 70.654 -144.5385
5462.441159 70.695 -144.0420
5502.024259 70.748 -143.5833
5541.894195 70.812 -143.1726
5582.053045 70.885 -142.8191
5622.502902 70.967 -142.5303
5663.245876 71.056 -142.3129
5704.284090 71.151 -142.1727
5745.619684 71.250 -142.1143
5787.254813 71.353 -142.1421
5829.191647 71.456 -142.2588
5871.432373 71.557 -142.4649
5913.979192 71.655 -142.7580
5956.834323 71.746 -143.1313
6000.000000 71.830 -143.5737
6043.478473 71.906 -144.0705
6087.272010 71.974 -144.6059
6131.382892 72.036 -145.1667
6175.813420 72.094 -145.7461
6220.565910 72.151 -146.3444
6265.642695 72.206 -146.9681
6311.046124 72.262 -147.6263
6356.778566 72.317 -148.3279
6402.842404 72.371 -149.0804
6449.240040 72.423 -149.8894
6495.973891 72.472 -150.7591
6543.046396 72.517 -151.6938
6590.460007 72.557 -152.6974
6638.217197 72.591 -153.7736
6686.320456 72.617 -154.9254
6734.772290 72.633 -156.1545
6783.575226 72.636 -157.4596
6832.731809 72.624 -158.8355
6882.244600 72.595 -160.2715
6932.116181 72.545 -161.7512
6982.349153 72.473 -163.2534
7032.946133 72.380 -164.7542
7083.909760 72.266 -166.2284
7135.242690 72.133 -167.6530
7186.947600 71.985 -169.0090
7239.027185 71.826 -170.2833
7291.484160 71.658 -171.4701
7344.321260 71.487 -172.5707
7397.541239 71.314 -173.5917
7451.146872 71.142 -174.5414
7505.140954 70.969 -175.4255
7559.526299 70.794 -176.2445
7614.305743 70.617 -176.9932
7669.482141 70.436 -177.6628
7725.058371 70.248 -178.2442
7781.037328 70.051 -178.7319
7837.421932 69.844 -179.1245
7894.215122 69.624 -179.4217
7951.419859 69.388 -179.6188
8009.039125 69.133 -179.6980
8067.075924 68.858 -179.6227
8125.533282 68.566 -179.3430
8184.414245 68.267 -178.8199
8243.721885 67.977 -178.0651
8303.459292 67.710 -177.1566
8363.629581 67.475 -176.2008
8424.235888 67.272 -175.2820
8485.281374 67.096 -174.4433
8546.769221 66.944 -173.6965
8608.702634 66.811 -173.0386
8671.084842 66.693 -172.4632
8733.919097 66.590 -171.9657
8797.208675 66.497 -171.5432
8860.956876 66.410 -171.1927
8925.167022 66.325 -170.9079
8989.842461 66.237 -170.6770
9054.986566 66.141 -170.4812
9120.602731 66.036 -170.2951
9186.694378 65.920 -170.0890
9253.264952 65.794 -169.8308
9320.317925 65.662 -169.4890
9387.856790 65.525 -169.0354
9455.885071 65.388 -168.4478
9524.406312 65.259 -167.7146
9593.424086 65.146 -166.8388
9662.941992 65.057 -165.8420
9732.963653 64.998 -164.7641
9803.492719 64.973 -163.6595
9874.532869 64.983 -162.5874
9946.087805 65.023 -161.6004
10018.161257 65.087 -160.7334
10090.756983 65.168 -159.9995
10163.878768 65.257 -159.3907
10237.530423 65.352 -158.8838
10311.715789 65.450 -158.4478
10386.438732 65.553 -158.0520
10461.703149 65.664 -157.6721
10537.512962 65.788 -157.2945
10613.872125 65.930 -156.9193
10690.784618 66.095 -156.5626
10768.254450 66.290 -156.2600
10846.285661 66.514 -156.0644
10924.882318 66.767 -156.0319
11004.048518 67.042 -156.1988
11083.788390 67.333 -156.5697
11164.106090 67.635 -157.1251
11245.005805 67.947 -157.8380
11326.491752 68.271 -158.6878
11408.568180 68.612 -159.6676
11491.239368 68.973 -160.7864
11574.509626 69.360 -162.0675
11658.383294 69.777 -163.5479
11742.864745 70.227 -165.2757
11827.958384 70.711 -167.3078
11913.668646 71.229 -169.7074
12000.000000 71.775 -172.5404
12086.956947 72.341 -175.8724
12174.544019 72.915 -179.7634
12262.765784 73.479 175.7392
12351.626840 74.013 170.6077
12441.131819 74.493 164.8420
12531.285389 74.897 158.4759
12622.092249 75.200 151.5815
12713.557132 75.385 144.2703
12805.684808 75.438 136.6876
12898.480079 75.353 129.0006
12991.947783 75.129 121.3820
13086.092792 74.772 113.9915
13180.920015 74.296 106.9620
13276.434395 73.715 100.3905
13372.640911 73.048 94.3350
13469.544580 72.315 88.8172
13567.150452 71.537 83.8283
13665.463617 70.737 79.3359
13764.489200 69.936 75.2912
13864.232362 69.156 71.6352
13964.698305 68.417 68.3033
14065.892266 67.733 65.2291
14167.819519 67.116 62.3477
14270.485380 66.571 59.5981
14373.895200 66.097 56.9246
14478.054370 65.693 54.2770
14582.968320 65.351 51.6105
14688.642520 65.066 48.8839
14795.082478 64.833 46.0583
14902.293745 64.648 43.0975
15010.281908 64.508 39.9675
15119.052599 64.412 36.6374
15228.611486 64.361 33.0803
15338.964283 64.356 29.2738
15450.116741 64.399 25.2003
15562.074656 64.492 20.8463
15674.843864 64.636 16.2003
15788.430244 64.827 11.2502
15902.839718 65.062 5.9791
16018.078250 65.336 0.3608
16134.151848 65.646 -5.6415
16251.066563 65.992 -12.0775
16368.828491 66.374 -19.0084
16487.443769 66.790 -26.5034
16606.918584 67.232 -34.6350
16727.259161 67.688 -43.4711
16848.471777 68.144 -53.0677
16970.562748 68.577 -63.4620
17093.538442 68.968 -74.6665
17217.405268 69.293 -86.6627
17342.169684 69.528 -99.4003
17467.838194 69.655 -112.7980
17594.417350 69.660 -126.7500
17721.913751 69.537 -141.1375
17850.334044 69.289 -155.8428
17979.684923 68.927 -170.7647
18109.973131 68.465 174.1711
18241.205462 67.922 159.0048
18373.388756 67.319 143.7415
18506.529905 66.675 128.3521
18640.635849 66.006 112.7761
18775.713581 65.327 96.9222
18911.770141 64.649 80.6669
19048.812624 63.980 63.8497
19186.848172 63.324 46.2852
19325.883983 62.678 27.8359
19465.927305 62.043 8.6451
19606.985439 61.425 -10.4561
19749.065738 60.859 -27.6865
19892.175609 60.408 -40.7687
20036.322514 60.153 -47.8179
