* Measurement data measured by REW V5.20.9
* Source: Input device not selected, no input selected, L, volume: no control. Timing signal peak level -55,8 dBFS, measurement signal peak level -24,0 dBFS
* Format: 256k Log Swept Sine, 1 sweep at -12,0 dBFS using an acoustic timing reference
* Dated: 25.07.2024 13:07:40
* REW Settings:
*  C-weighting compensation: Off
*  Target level: 75.0 dB
* Note: Delay 0,0912 ms (31 mm, 1,23 in) using estimated IR delay relative to Acoustic reference on  R with no timing offset
* Measurement: kevl v1 300
* Smoothing: 1/12 octave
* Frequency Step: 96 ppo
* Start Frequency: 20.187378 Hz
*
* Freq(Hz) SPL(dB) Phase(degrees)
20.187378 89.958 127.5712
20.333664 89.994 127.6478
20.481010 90.047 127.7547
20.629424 90.111 127.8674
20.778913 90.182 127.9612
20.929486 90.253 128.0146
21.081150 90.323 128.0126
21.233912 90.386 127.9472
21.387782 90.441 127.8180
21.542767 90.487 127.6320
21.698874 90.524 127.4012
21.856113 90.553 127.1408
22.014492 90.576 126.8668
22.174018 90.599 126.5928
22.334700 90.624 126.3278
22.496546 90.656 126.0743
22.659566 90.701 125.8279
22.823766 90.759 125.5779
22.989157 90.834 125.3093
23.155745 90.925 125.0067
23.323542 91.029 124.6568
23.492554 91.143 124.2525
23.662790 91.261 123.7943
23.834261 91.381 123.2912
24.006973 91.497 122.7593
24.180938 91.606 122.2196
24.356163 91.708 121.6950
24.532658 91.802 121.2066
24.710431 91.889 120.7707
24.889493 91.972 120.3955
25.069853 92.055 120.0799
25.251519 92.139 119.8135
25.434502 92.226 119.5778
25.618811 92.318 119.3496
25.804456 92.414 119.1052
25.991445 92.513 118.8244
26.179790 92.611 118.4936
26.369500 92.706 118.1085
26.560584 92.795 117.6735
26.753053 92.876 117.2008
26.946917 92.949 116.7074
27.142185 93.014 116.2126
27.338869 93.073 115.7345
27.536977 93.128 115.2872
27.736522 93.181 114.8795
27.937512 93.237 114.5141
28.139959 93.296 114.1882
28.343872 93.361 113.8947
28.549264 93.433 113.6247
28.756143 93.512 113.3693
28.964522 93.596 113.1209
29.174411 93.686 112.8741
29.385821 93.779 112.6260
29.598763 93.875 112.3745
29.813248 93.973 112.1187
30.029287 94.071 111.8571
30.246891 94.169 111.5876
30.466073 94.267 111.3079
30.686842 94.363 111.0158
30.909212 94.458 110.7102
31.133193 94.550 110.3912
31.358797 94.640 110.0611
31.586035 94.727 109.7233
31.814921 94.813 109.3819
32.045465 94.898 109.0403
32.277680 94.983 108.7007
32.511577 95.069 108.3630
32.747169 95.156 108.0252
32.984469 95.242 107.6848
33.223488 95.329 107.3396
33.464239 95.413 106.9894
33.706735 95.494 106.6363
33.950987 95.571 106.2844
34.197010 95.643 105.9382
34.444816 95.711 105.6003
34.694417 95.777 105.2693
34.945827 95.842 104.9392
35.199059 95.907 104.6002
35.454126 95.974 104.2420
35.711041 96.042 103.8579
35.969818 96.111 103.4486
36.230470 96.178 103.0236
36.493011 96.245 102.6005
36.757455 96.312 102.2000
37.023814 96.381 101.8397
37.292104 96.453 101.5283
37.562338 96.531 101.2624
37.834530 96.616 101.0266
38.108695 96.707 100.7994
38.384846 96.801 100.5595
38.662999 96.895 100.2925
38.943167 96.985 99.9940
39.225365 97.069 99.6686
39.509608 97.147 99.3258
39.795911 97.220 98.9752
40.084289 97.289 98.6234
40.374756 97.359 98.2731
40.667328 97.428 97.9259
40.962020 97.499 97.5840
41.258848 97.571 97.2524
41.557827 97.645 96.9375
41.858972 97.720 96.6427
42.162299 97.798 96.3654
42.467824 97.878 96.0946
42.775564 97.960 95.8122
43.085533 98.043 95.4981
43.397749 98.125 95.1360
43.712227 98.204 94.7191
44.028983 98.279 94.2529
44.348036 98.350 93.7532
44.669400 98.418 93.2430
44.993093 98.486 92.7458
45.319131 98.556 92.2807
45.647532 98.632 91.8589
45.978313 98.713 91.4842
46.311491 98.798 91.1566
46.647083 98.884 90.8781
46.985107 98.967 90.6545
47.325581 99.048 90.4926
47.668521 99.128 90.3906
48.013947 99.210 90.3266
48.361876 99.298 90.2543
48.712326 99.395 90.1098
49.065315 99.496 89.8324
49.420863 99.595 89.3894
49.778987 99.683 88.7917
50.139706 99.755 88.0909
50.503039 99.810 87.3608
50.869005 99.853 86.6701
51.237623 99.892 86.0604
51.608912 99.935 85.5377
51.982891 99.984 85.0807
52.359580 100.039 84.6591
52.739000 100.099 84.2490
53.121168 100.160 83.8392
53.506106 100.220 83.4268
53.893833 100.280 83.0112
54.284370 100.341 82.5917
54.677737 100.403 82.1709
55.073955 100.467 81.7569
55.473043 100.534 81.3620
55.875024 100.605 80.9955
56.279917 100.682 80.6572
56.687745 100.766 80.3366
57.098527 100.854 80.0185
57.512287 100.946 79.6918
57.929045 101.039 79.3535
58.348822 101.131 79.0063
58.771642 101.223 78.6527
59.197525 101.313 78.2911
59.626495 101.399 77.9172
60.058573 101.478 77.5287
60.493782 101.548 77.1285
60.932145 101.609 76.7245
61.373685 101.661 76.3257
61.818424 101.709 75.9381
62.266386 101.756 75.5633
62.717593 101.805 75.1987
63.172071 101.858 74.8385
63.629842 101.915 74.4747
64.090930 101.974 74.0995
64.555359 102.035 73.7069
65.023154 102.094 73.2949
65.494339 102.152 72.8643
65.968938 102.210 72.4181
66.446976 102.269 71.9606
66.928478 102.330 71.4977
67.413469 102.393 71.0361
67.901975 102.457 70.5824
68.394021 102.521 70.1394
68.889632 102.586 69.7059
69.388835 102.650 69.2778
69.891655 102.713 68.8510
70.398118 102.775 68.4223
70.908252 102.836 67.9889
71.422083 102.897 67.5478
71.939636 102.958 67.0952
72.460941 103.018 66.6296
72.986023 103.078 66.1525
73.514909 103.137 65.6691
74.047629 103.195 65.1860
74.584208 103.252 64.7081
75.124676 103.309 64.2366
75.669061 103.366 63.7701
76.217390 103.422 63.3061
76.769692 103.477 62.8428
77.325997 103.533 62.3782
77.886333 103.588 61.9098
78.450730 103.644 61.4348
79.019216 103.700 60.9518
79.591822 103.756 60.4619
80.168577 103.812 59.9684
80.749512 103.869 59.4744
81.334656 103.927 58.9814
81.924040 103.987 58.4882
82.517696 104.046 57.9917
83.115653 104.104 57.4874
83.717943 104.159 56.9707
84.324598 104.210 56.4395
84.935649 104.256 55.8958
85.551128 104.301 55.3455
86.171066 104.344 54.7954
86.795497 104.389 54.2520
87.424453 104.435 53.7197
88.057967 104.483 53.2002
88.696071 104.531 52.6903
89.338800 104.578 52.1828
89.986185 104.625 51.6696
90.638262 104.671 51.1468
91.295065 104.718 50.6159
91.956626 104.766 50.0819
92.622982 104.815 49.5499
93.294166 104.865 49.0222
93.970214 104.914 48.4991
94.651161 104.962 47.9790
95.337042 105.008 47.4595
96.027894 105.052 46.9369
96.723752 105.095 46.4073
97.424652 105.136 45.8674
98.130631 105.176 45.3152
98.841726 105.216 44.7514
99.557974 105.256 44.1786
100.279412 105.295 43.6004
101.006078 105.333 43.0191
101.738010 105.370 42.4352
102.475245 105.406 41.8495
103.217823 105.440 41.2648
103.965782 105.473 40.6858
104.719161 105.505 40.1162
105.477999 105.537 39.5547
106.242336 105.569 38.9944
107.012212 105.602 38.4276
107.787666 105.636 37.8501
108.568740 105.669 37.2625
109.355474 105.700 36.6684
110.147909 105.729 36.0727
110.946086 105.755 35.4797
111.750047 105.779 34.8926
112.559834 105.800 34.3123
113.375489 105.819 33.7363
114.197055 105.839 33.1582
115.024574 105.859 32.5730
115.858089 105.882 31.9824
116.697645 105.906 31.3928
117.543284 105.930 30.8072
118.395051 105.952 30.2218
119.252990 105.971 29.6287
120.117147 105.988 29.0220
120.987565 106.004 28.4030
121.864291 106.020 27.7800
122.747370 106.038 27.1632
123.636848 106.056 26.5596
124.532771 106.074 25.9712
125.435187 106.090 25.3959
126.344142 106.106 24.8291
127.259684 106.120 24.2650
128.181860 106.133 23.6968
129.110718 106.145 23.1188
130.046308 106.154 22.5291
130.988677 106.161 21.9308
131.937875 106.165 21.3302
132.893951 106.168 20.7304
133.856956 106.172 20.1297
134.826938 106.175 19.5262
135.803950 106.178 18.9209
136.788041 106.180 18.3165
137.779264 106.181 17.7150
138.777669 106.181 17.1161
139.783309 106.181 16.5186
140.796237 106.181 15.9245
141.816504 106.181 15.3400
142.844165 106.181 14.7706
143.879273 106.180 14.2143
144.921881 106.177 13.6622
145.972045 106.173 13.1045
147.029819 106.167 12.5356
148.095257 106.159 11.9540
149.168417 106.150 11.3606
150.249353 106.139 10.7590
151.338121 106.127 10.1577
152.434780 106.114 9.5703
153.539385 106.102 9.0102
154.651995 106.090 8.4788
155.772667 106.078 7.9635
156.901460 106.066 7.4495
158.038432 106.054 6.9294
159.183644 106.041 6.4029
160.337154 106.027 5.8720
161.499023 106.013 5.3384
162.669312 105.997 4.8029
163.848081 105.980 4.2669
165.035392 105.962 3.7325
166.231306 105.943 3.2022
167.435887 105.922 2.6777
168.649196 105.900 2.1585
169.871298 105.878 1.6426
171.102255 105.855 1.1278
172.342133 105.832 0.6132
173.590995 105.809 0.0991
174.848907 105.786 -0.4140
176.115934 105.761 -0.9258
177.392143 105.736 -1.4359
178.677599 105.709 -1.9435
179.972371 105.682 -2.4477
181.276525 105.653 -2.9485
182.590129 105.623 -3.4457
183.913252 105.591 -3.9392
185.245964 105.558 -4.4280
186.588332 105.523 -4.9112
187.940428 105.488 -5.3874
189.302322 105.451 -5.8556
190.674085 105.413 -6.3153
192.055788 105.375 -6.7662
193.447503 105.336 -7.2090
194.849303 105.296 -7.6444
196.261262 105.255 -8.0723
197.683452 105.214 -8.4917
199.115948 105.173 -8.9001
200.558824 105.131 -9.2965
202.012156 105.090 -9.6811
203.476019 105.048 -10.0553
204.950490 105.005 -10.4206
206.435646 104.962 -10.7780
207.931564 104.920 -11.1284
209.438322 104.878 -11.4720
210.955998 104.837 -11.8087
212.484672 104.796 -12.1383
214.024424 104.756 -12.4608
215.575333 104.717 -12.7765
217.137481 104.679 -13.0861
218.710948 104.641 -13.3905
220.295818 104.604 -13.6910
221.892172 104.567 -13.9888
223.500094 104.531 -14.2851
225.119668 104.496 -14.5812
226.750978 104.461 -14.8781
228.394109 104.425 -15.1767
230.049147 104.390 -15.4775
231.716178 104.354 -15.7806
233.395289 104.319 -16.0850
235.086567 104.283 -16.3881
236.790102 104.247 -16.6878
238.505980 104.211 -16.9840
240.234293 104.175 -17.2781
241.975130 104.138 -17.5706
243.728581 104.100 -17.8604
245.494739 104.062 -18.1461
247.273695 104.023 -18.4283
249.065542 103.985 -18.7102
250.870374 103.947 -18.9945
252.688284 103.910 -19.2816
254.519367 103.873 -19.5699
256.363720 103.835 -19.8570
258.221437 103.796 -20.1410
260.092616 103.756 -20.4216
261.977354 103.715 -20.6999
263.875750 103.674 -20.9777
265.787903 103.633 -21.2554
267.713911 103.591 -21.5313
269.653877 103.549 -21.8043
271.607900 103.506 -22.0739
273.576083 103.462 -22.3385
275.558528 103.417 -22.5960
277.555338 103.371 -22.8442
279.566619 103.325 -23.0811
281.592474 103.277 -23.3043
283.633009 103.228 -23.5123
285.688331 103.179 -23.7040
287.758546 103.127 -23.8785
289.843763 103.075 -24.0351
291.944090 103.022 -24.1745
294.059638 102.970 -24.2976
296.190515 102.918 -24.4056
298.336833 102.867 -24.4994
300.498705 102.819 -24.5794
302.676243 102.772 -24.6445
304.869559 102.728 -24.6922
307.078770 102.687 -24.7203
309.303989 102.650 -24.7309
311.545334 102.616 -24.7314
313.802919 102.585 -24.7318
316.076865 102.558 -24.7400
318.367288 102.534 -24.7596
320.674309 102.514 -24.7904
322.998047 102.497 -24.8306
325.338624 102.484 -24.8790
327.696162 102.473 -24.9361
330.070783 102.465 -25.0043
332.462612 102.459 -25.0874
334.871773 102.454 -25.1889
337.298392 102.451 -25.3094
339.742595 102.446 -25.4478
342.204510 102.441 -25.6028
344.684265 102.434 -25.7740
347.181989 102.425 -25.9606
349.697813 102.413 -26.1597
352.231868 102.401 -26.3681
354.784285 102.387 -26.5834
357.355198 102.373 -26.8041
359.944741 102.358 -27.0291
362.553049 102.342 -27.2566
365.180258 102.325 -27.4828
367.826505 102.307 -27.7033
370.491927 102.288 -27.9157
373.176665 102.268 -28.1227
375.880856 102.249 -28.3311
378.604644 102.228 -28.5479
381.348169 102.208 -28.7783
384.111575 102.186 -29.0241
386.895006 102.163 -29.2829
389.698607 102.138 -29.5500
392.522524 102.111 -29.8188
395.366904 102.082 -30.0790
398.231895 102.052 -30.3187
401.117648 102.023 -30.5317
404.024312 101.995 -30.7240
406.952038 101.968 -30.9122
409.900981 101.943 -31.1134
412.871292 101.918 -31.3358
415.863128 101.892 -31.5766
418.876643 101.864 -31.8244
421.911996 101.833 -32.0640
424.969344 101.803 -32.2847
428.048847 101.773 -32.4903
431.150666 101.745 -32.6926
434.274961 101.717 -32.8960
437.421897 101.688 -33.0966
440.591636 101.659 -33.2905
443.784345 101.628 -33.4792
447.000189 101.597 -33.6663
450.239337 101.565 -33.8546
453.501956 101.533 -34.0450
456.788219 101.502 -34.2370
460.098294 101.471 -34.4288
463.432356 101.441 -34.6186
466.790578 101.411 -34.8050
470.173135 101.382 -34.9868
473.580203 101.352 -35.1637
477.011961 101.322 -35.3373
480.468586 101.292 -35.5108
483.950259 101.261 -35.6866
487.457163 101.230 -35.8642
490.989478 101.199 -36.0418
494.547390 101.167 -36.2178
498.131084 101.136 -36.3910
501.740748 101.105 -36.5606
505.376568 101.075 -36.7265
509.038735 101.045 -36.8884
512.727439 101.016 -37.0465
516.442874 100.987 -37.2024
520.185232 100.958 -37.3581
523.954708 100.930 -37.5147
527.751500 100.901 -37.6713
531.575805 100.872 -37.8270
535.427822 100.843 -37.9814
539.307753 100.813 -38.1355
543.215800 100.783 -38.2910
547.152165 100.753 -38.4491
551.117055 100.722 -38.6092
555.110677 100.693 -38.7689
559.133237 100.664 -38.9269
563.184947 100.636 -39.0833
567.266018 100.608 -39.2391
571.376661 100.581 -39.3950
575.517092 100.553 -39.5504
579.687526 100.525 -39.7041
583.888181 100.496 -39.8555
588.119275 100.467 -40.0057
592.381030 100.439 -40.1573
596.673667 100.411 -40.3122
600.997410 100.384 -40.4691
605.352485 100.357 -40.6257
609.739119 100.331 -40.7817
614.157540 100.305 -40.9392
618.607979 100.279 -41.0986
623.090667 100.254 -41.2571
627.605839 100.228 -41.4116
632.153730 100.202 -41.5624
636.734576 100.175 -41.7138
641.348617 100.149 -41.8708
645.996094 100.123 -42.0338
650.677248 100.097 -42.1992
655.392323 100.070 -42.3640
660.141566 100.044 -42.5280
664.925224 100.017 -42.6924
669.743546 99.991 -42.8584
674.596784 99.965 -43.0265
679.485191 99.939 -43.1963
684.409020 99.913 -43.3671
689.368530 99.886 -43.5389
694.363979 99.859 -43.7127
699.395626 99.831 -43.8886
704.463736 99.803 -44.0651
709.568570 99.775 -44.2398
714.710396 99.747 -44.4104
719.889483 99.719 -44.5762
725.106099 99.692 -44.7390
730.360516 99.666 -44.9021
735.653010 99.641 -45.0681
740.983855 99.615 -45.2376
746.353329 99.589 -45.4109
751.761713 99.561 -45.5881
757.209288 99.533 -45.7686
762.696339 99.504 -45.9509
768.223151 99.476 -46.1328
773.790013 99.449 -46.3113
779.397214 99.423 -46.4838
785.045047 99.397 -46.6504
790.733808 99.371 -46.8141
796.463791 99.344 -46.9787
802.235296 99.316 -47.1471
808.048623 99.289 -47.3191
813.904077 99.260 -47.4927
819.801961 99.231 -47.6659
825.742584 99.202 -47.8374
831.726255 99.172 -48.0072
837.753287 99.142 -48.1760
843.823992 99.111 -48.3450
849.938689 99.080 -48.5153
856.097695 99.050 -48.6870
862.301332 99.019 -48.8595
868.549922 98.989 -49.0322
874.843793 98.960 -49.2052
881.183272 98.930 -49.3787
887.568689 98.900 -49.5527
894.000378 98.869 -49.7259
900.478673 98.838 -49.8962
907.003913 98.807 -50.0621
913.576437 98.775 -50.2233
920.196588 98.742 -50.3806
926.864712 98.709 -50.5355
933.581156 98.676 -50.6880
940.346270 98.644 -50.8357
947.160407 98.613 -50.9766
954.023921 98.581 -51.1109
960.937172 98.549 -51.2401
967.900519 98.518 -51.3654
974.914325 98.487 -51.4881
981.978956 98.456 -51.6107
989.094780 98.425 -51.7353
996.262169 98.395 -51.8616
1003.481495 98.364 -51.9859
1010.753136 98.334 -52.1044
1018.077470 98.304 -52.2159
1025.454879 98.274 -52.3228
1032.885748 98.245 -52.4276
1040.370463 98.216 -52.5309
1047.909417 98.188 -52.6310
1055.503000 98.160 -52.7268
1063.151610 98.133 -52.8194
1070.855645 98.107 -52.9115
1078.615506 98.082 -53.0047
1086.431599 98.058 -53.0989
1094.304330 98.036 -53.1930
1102.234110 98.014 -53.2857
1110.221353 97.993 -53.3764
1118.266475 97.973 -53.4657
1126.369895 97.953 -53.5539
1134.532035 97.933 -53.6419
1142.753322 97.914 -53.7316
1151.034184 97.895 -53.8262
1159.375052 97.877 -53.9279
1167.776361 97.859 -54.0368
1176.238550 97.842 -54.1508
1184.762060 97.825 -54.2662
1193.347334 97.809 -54.3789
1201.994821 97.793 -54.4872
1210.704971 97.777 -54.5914
1219.478238 97.762 -54.6938
1228.315080 97.748 -54.7959
1237.215957 97.734 -54.8985
1246.181334 97.721 -55.0021
1255.211678 97.707 -55.1079
1264.307459 97.694 -55.2176
1273.469152 97.682 -55.3332
1282.697235 97.669 -55.4556
1291.992188 97.657 -55.5851
1301.354495 97.645 -55.7209
1310.784647 97.634 -55.8623
1320.283132 97.623 -56.0079
1329.850448 97.611 -56.1548
1339.487093 97.599 -56.2988
1349.193569 97.586 -56.4372
1358.970381 97.573 -56.5693
1368.818041 97.559 -56.6969
1378.737061 97.545 -56.8225
1388.727958 97.533 -56.9477
1398.791253 97.520 -57.0732
1408.927471 97.509 -57.1979
1419.137140 97.499 -57.3207
1429.420793 97.490 -57.4418
1439.778965 97.481 -57.5622
1450.212197 97.474 -57.6820
1460.721033 97.467 -57.8006
1471.306019 97.460 -57.9184
1481.967709 97.454 -58.0359
1492.706658 97.449 -58.1531
1503.523426 97.443 -58.2701
1514.418576 97.438 -58.3881
1525.392678 97.433 -58.5080
1536.446302 97.427 -58.6300
1547.580025 97.422 -58.7536
1558.794428 97.416 -58.8776
1570.090095 97.411 -58.9995
1581.467615 97.407 -59.1156
1592.927581 97.403 -59.2236
1604.470591 97.399 -59.3245
1616.097246 97.396 -59.4209
1627.808153 97.392 -59.5139
1639.603922 97.389 -59.6026
1651.485168 97.386 -59.6844
1663.452510 97.384 -59.7582
1675.506573 97.383 -59.8245
1687.647984 97.383 -59.8844
1699.877377 97.384 -59.9375
1712.195390 97.386 -59.9825
1724.602663 97.387 -60.0173
1737.099845 97.389 -60.0397
1749.687587 97.392 -60.0484
1762.366544 97.395 -60.0423
1775.137379 97.400 -60.0195
1788.000756 97.407 -59.9770
1800.957346 97.416 -59.9122
1814.007826 97.427 -59.8233
1827.152874 97.443 -59.7093
1840.393177 97.462 -59.5709
1853.729425 97.486 -59.4105
1867.162312 97.514 -59.2291
1880.692540 97.547 -59.0268
1894.320813 97.587 -58.8044
1908.047843 97.633 -58.5654
1921.874344 97.687 -58.3153
1935.801038 97.749 -58.0571
1949.828650 97.820 -57.7906
1963.957912 97.899 -57.5156
1978.189561 97.988 -57.2332
1992.524338 98.087 -56.9467
2006.962991 98.197 -56.6614
2021.506272 98.318 -56.3830
2036.154940 98.452 -56.1171
2050.909758 98.599 -55.8722
2065.771495 98.761 -55.6610
2080.740927 98.937 -55.4977
2095.818833 99.126 -55.3931
2111.006001 99.329 -55.3554
2126.303220 99.545 -55.3954
2141.711290 99.774 -55.5284
2157.231013 100.015 -55.7687
2172.863198 100.266 -56.1270
2188.608660 100.525 -56.6129
2204.468221 100.791 -57.2368
2220.442706 101.062 -58.0075
2236.532950 101.334 -58.9303
2252.739789 101.605 -60.0071
2269.064070 101.874 -61.2384
2285.506644 102.138 -62.6226
2302.068367 102.393 -64.1542
2318.750104 102.639 -65.8255
2335.552723 102.872 -67.6278
2352.477101 103.091 -69.5513
2369.524119 103.294 -71.5864
2386.694668 103.481 -73.7226
2403.989641 103.650 -75.9495
2421.409941 103.800 -78.2556
2438.956476 103.930 -80.6290
2456.630160 104.040 -83.0569
2474.431915 104.128 -85.5255
2492.362668 104.195 -88.0203
2510.423356 104.241 -90.5268
2528.614918 104.266 -93.0293
2546.938304 104.270 -95.5138
2565.394469 104.255 -97.9687
2583.984375 104.222 -100.3837
2602.708991 104.173 -102.7491
2621.569293 104.109 -105.0571
2640.566265 104.032 -107.3017
2659.700897 103.943 -109.4794
2678.974186 103.844 -111.5885
2698.387137 103.736 -113.6281
2717.940763 103.621 -115.5986
2737.636082 103.500 -117.5019
2757.474121 103.373 -119.3396
2777.455915 103.242 -121.1132
2797.582506 103.107 -122.8244
2817.854942 102.968 -124.4746
2838.274281 102.827 -126.0642
2858.841586 102.684 -127.5945
2879.557931 102.540 -129.0677
2900.424394 102.396 -130.4870
2921.442065 102.251 -131.8553
2942.612039 102.106 -133.1759
2963.935418 101.962 -134.4519
2985.413316 101.819 -135.6859
3007.046852 101.677 -136.8804
3028.837153 101.537 -138.0383
3050.785356 101.398 -139.1627
3072.892604 101.260 -140.2552
3095.160050 101.124 -141.3173
3117.588856 100.989 -142.3500
3140.180190 100.856 -143.3543
3162.935230 100.725 -144.3313
3185.855163 100.597 -145.2830
3208.941182 100.471 -146.2118
3232.194493 100.347 -147.1200
3255.616307 100.227 -148.0102
3279.207844 100.109 -148.8849
3302.970336 99.995 -149.7460
3326.905021 99.882 -150.5956
3351.013146 99.772 -151.4355
3375.295969 99.664 -152.2670
3399.754755 99.558 -153.0908
3424.390779 99.454 -153.9074
3449.205326 99.352 -154.7162
3474.199690 99.252 -155.5161
3499.375173 99.152 -156.3062
3524.733088 99.055 -157.0863
3550.274757 98.958 -157.8562
3576.001511 98.864 -158.6162
3601.914692 98.771 -159.3668
3628.015651 98.680 -160.1087
3654.305748 98.591 -160.8425
3680.786354 98.504 -161.5684
3707.458849 98.419 -162.2866
3734.324624 98.336 -162.9968
3761.385080 98.255 -163.6986
3788.641627 98.176 -164.3916
3816.095686 98.099 -165.0761
3843.748688 98.024 -165.7533
3871.602076 97.952 -166.4249
3899.657300 97.883 -167.0928
3927.915825 97.815 -167.7579
3956.379122 97.750 -168.4202
3985.048676 97.688 -169.0792
4013.925981 97.627 -169.7349
4043.012544 97.569 -170.3879
4072.309879 97.514 -171.0392
4101.819515 97.461 -171.6893
4131.542990 97.411 -172.3386
4161.481854 97.363 -172.9872
4191.637667 97.318 -173.6360
4222.012001 97.275 -174.2861
4252.606441 97.234 -174.9381
4283.422580 97.196 -175.5917
4314.462026 97.161 -176.2460
4345.726396 97.128 -176.8998
4377.217321 97.097 -177.5522
4408.936442 97.070 -178.2032
4440.885413 97.046 -178.8543
4473.065899 97.025 -179.5082
4505.479579 97.008 179.8321
4538.128141 96.993 179.1639
4571.013288 96.982 178.4852
4604.136735 96.973 177.7948
4637.500207 96.966 177.0929
4671.105446 96.961 176.3821
4704.954201 96.956 175.6673
4739.048239 96.951 174.9562
4773.389336 96.948 174.2574
4807.979283 96.947 173.5783
4842.819883 96.949 172.9230
4877.912952 96.956 172.2905
4913.260320 96.970 171.6747
4948.863830 96.992 171.0659
4984.725337 97.022 170.4534
5020.846712 97.059 169.8282
5057.229836 97.104 169.1846
5093.876609 97.155 168.5195
5130.788938 97.213 167.8317
5167.968750 97.277 167.1206
5205.417982 97.347 166.3862
5243.138586 97.423 165.6290
5281.132530 97.505 164.8493
5319.401793 97.592 164.0471
5357.948371 97.687 163.2215
5396.774274 97.787 162.3712
5435.881525 97.895 161.4940
5475.272163 98.010 160.5874
5514.948243 98.133 159.6482
5554.911831 98.263 158.6732
5595.165012 98.401 157.6586
5635.709884 98.547 156.6004
5676.548561 98.701 155.4943
5717.683172 98.863 154.3348
5759.115861 99.034 153.1161
5800.848789 99.212 151.8320
5842.884130 99.399 150.4764
5885.224077 99.594 149.0441
5927.870837 99.796 147.5298
5970.826633 100.006 145.9273
6014.093704 100.223 144.2295
6057.674306 100.448 142.4280
6101.570711 100.679 140.5134
6145.785208 100.916 138.4757
6190.320101 101.159 136.3053
6235.177712 101.405 133.9929
6280.360380 101.654 131.5300
6325.870460 101.903 128.9078
6371.710325 102.151 126.1177
6417.882365 102.394 123.1519
6464.388986 102.630 120.0040
6511.232613 102.855 116.6712
6558.415689 103.065 113.1545
6605.940673 103.255 109.4606
6653.810042 103.422 105.6010
6702.026292 103.562 101.5935
6750.591937 103.671 97.4611
6799.509509 103.747 93.2319
6848.781558 103.787 88.9380
6898.410653 103.792 84.6145
6948.399380 103.761 80.2963
6998.750346 103.695 76.0173
7049.466176 103.598 71.8077
7100.549514 103.472 67.6932
7152.003023 103.321 63.6930
7203.829385 103.150 59.8194
7256.031302 102.962 56.0789
7308.611496 102.761 52.4733
7361.572708 102.549 49.0021
7414.917698 102.329 45.6647
7468.649249 102.104 42.4590
7522.770160 101.876 39.3816
7577.283253 101.647 36.4270
7632.191371 101.420 33.5876
7687.497376 101.196 30.8535
7743.204151 100.977 28.2133
7799.314600 100.765 25.6545
7855.831649 100.561 23.1652
7912.758244 100.366 20.7332
7970.097352 100.181 18.3467
8027.851962 100.006 15.9930
8086.025087 99.842 13.6593
8144.619758 99.688 11.3329
8203.639030 99.545 9.0012
8263.085980 99.411 6.6528
8322.963708 99.285 4.2772
8383.275334 99.167 1.8652
8444.024002 99.053 -0.5902
8505.212881 98.943 -3.0933
8566.845160 98.834 -5.6442
8628.924051 98.722 -8.2382
8691.452792 98.607 -10.8633
8754.434642 98.484 -13.5012
8817.872884 98.355 -16.1267
8881.770826 98.219 -18.7115
8946.131799 98.079 -21.2286
9010.959157 97.939 -23.6578
9076.256282 97.804 -25.9915
9142.026576 97.682 -28.2372
9208.273470 97.577 -30.4186
9275.000415 97.494 -32.5716
9342.210891 97.435 -34.7399
9409.908403 97.401 -36.9694
9478.096478 97.388 -39.3026
9546.778672 97.395 -41.7761
9615.958566 97.416 -44.4193
9685.639765 97.448 -47.2542
9755.825904 97.483 -50.2949
9826.520640 97.515 -53.5477
9897.727659 97.539 -57.0101
9969.450674 97.547 -60.6702
10041.693423 97.532 -64.5054
10114.459673 97.488 -68.4814
10187.753217 97.410 -72.5530
10261.577877 97.294 -76.6624
10335.937500 97.137 -80.7415
10410.835964 96.942 -84.7134
10486.277173 96.710 -88.4968
10562.265060 96.452 -92.0145
10638.803587 96.181 -95.2054
10715.896743 95.913 -98.0409
10793.548548 95.668 -100.5393
10871.763050 95.465 -102.7723
10950.544327 95.315 -104.8577
11029.896485 95.224 -106.9363
11109.823662 95.189 -109.1425
11190.330024 95.199 -111.5781
11271.419768 95.239 -114.2997
11353.097122 95.294 -117.3188
11435.366344 95.353 -120.6144
11518.231722 95.407 -124.1460
11601.697577 95.450 -127.8674
11685.768261 95.480 -131.7340
11770.448155 95.498 -135.7084
11855.741674 95.504 -139.7627
11941.653265 95.501 -143.8787
12028.187408 95.491 -148.0469
12115.348612 95.477 -152.2651
12203.141422 95.460 -156.5356
12291.570415 95.442 -160.8632
12380.640201 95.425 -165.2542
12470.355424 95.410 -169.7160
12560.720760 95.397 -174.2567
12651.740920 95.388 -178.8857
12743.420650 95.384 176.3850
12835.764729 95.388 171.5395
12928.777972 95.401 166.5558
13022.465227 95.427 161.4029
13116.831378 95.466 156.0380
13211.881345 95.519 150.4052
13307.620084 95.584 144.4381
13404.052584 95.653 138.0667
13501.183875 95.715 131.2276
13599.019019 95.752 123.8774
13697.563116 95.745 116.0054
13796.821305 95.670 107.6419
13896.798760 95.506 98.8621
13997.500692 95.233 89.7833
14098.932352 94.837 80.5547
14201.099028 94.311 71.3435
14304.006046 93.655 62.3185
14407.658770 92.875 53.6379
14512.062604 91.981 45.4420
14617.222992 90.987 37.8493
14723.145416 89.911 30.9567
14829.835397 88.773 24.8386
14937.298497 87.592 19.5431
15045.540320 86.392 15.0889
15154.566507 85.195 11.4625
15264.382743 84.026 8.6166
15374.994752 82.906 6.4727
15486.408302 81.857 4.9230
15598.629201 80.898 3.8297
15711.663298 80.045 3.0237
15825.516487 79.311 2.3018
15940.194703 78.697 1.4304
16055.703925 78.197 0.1702
16172.050174 77.790 -1.6798
16289.239516 77.444 -4.2426
16407.278061 77.120 -7.5436
16526.171961 76.778 -11.5128
16645.927415 76.386 -16.0074
16766.550667 75.921 -20.8386
16888.048005 75.367 -25.7962
17010.425762 74.723 -30.6617
17133.690320 73.991 -35.2101
17257.848103 73.186 -39.2153
17382.905584 72.332 -42.4743
17508.869284 71.460 -44.8342
17635.745768 70.608 -46.2037
17763.541652 69.817 -46.5529
17892.263597 69.138 -45.9283
18021.918315 68.622 -44.5251
18152.512564 68.311 -42.7737
18284.053153 68.217 -41.2984
18416.546939 68.310 -40.6935
18550.000830 68.531 -41.3191
18684.421783 68.812 -43.2852
18819.816805 69.098 -46.5321
18956.192956 69.349 -50.9111
19093.557344 69.535 -56.2547
19231.917131 69.631 -62.4064
19371.279531 69.625 -69.2010
19511.651807 69.520 -76.4201
19653.041280 69.344 -83.7756
19795.455318 69.158 -90.9492
19938.901348 69.037 -97.6733
