* Measurement data measured by REW V5.31.3
* Source: Input device not selected, no input selected, L, volume: no control
* Format: 256k Log Swept Sine, 1 sweep at -20,0 dBFS with no timing reference
* Dated: 01.07.2025 20:46:48
* REW Settings:
*  C-weighting compensation: Off
*  Target level: 75.0 dB
* Note: 
* Measurement: newhd800
* Smoothing: 1/12 octave
* Frequency Step: 96 ppo
* Start Frequency: 20.187378 Hz
*
* Freq(Hz) SPL(dB) Phase(degrees)
20.187378 92.007 -82.5557
20.333664 92.037 -82.4774
20.481010 92.080 -82.3753
20.629424 92.132 -82.2776
20.778913 92.191 -82.2109
20.929486 92.251 -82.1961
21.081150 92.309 -82.2461
21.233912 92.364 -82.3654
21.387782 92.412 -82.5506
21.542767 92.453 -82.7917
21.698874 92.488 -83.0738
21.856113 92.518 -83.3796
22.014492 92.546 -83.6916
22.174018 92.574 -83.9944
22.334700 92.607 -84.2763
22.496546 92.647 -84.5312
22.659566 92.698 -84.7580
22.823766 92.763 -84.9609
22.989157 92.840 -85.1475
23.155745 92.931 -85.3273
23.323542 93.033 -85.5091
23.492554 93.143 -85.6999
23.662790 93.258 -85.9034
23.834261 93.374 -86.1199
24.006973 93.489 -86.3466
24.180938 93.598 -86.5788
24.356163 93.700 -86.8105
24.532658 93.794 -87.0355
24.710431 93.877 -87.2481
24.889493 93.951 -87.4433
25.069853 94.014 -87.6168
25.251519 94.067 -87.7644
25.434502 94.111 -87.8823
25.618811 94.148 -87.9671
25.804456 94.180 -88.0167
25.991445 94.210 -88.0313
26.179790 94.241 -88.0153
26.369500 94.276 -87.9779
26.560584 94.319 -87.9342
26.753053 94.371 -87.9036
26.946917 94.433 -87.9078
27.142185 94.505 -87.9669
27.338869 94.583 -88.0949
27.536977 94.666 -88.2968
27.736522 94.747 -88.5656
27.937512 94.825 -88.8835
28.139959 94.896 -89.2236
28.343872 94.960 -89.5544
28.549264 95.017 -89.8451
28.756143 95.070 -90.0713
28.964522 95.122 -90.2193
29.174411 95.177 -90.2884
29.385821 95.236 -90.2904
29.598763 95.302 -90.2461
29.813248 95.373 -90.1806
30.029287 95.447 -90.1174
30.246891 95.523 -90.0748
30.466073 95.598 -90.0645
30.686842 95.671 -90.0932
30.909212 95.741 -90.1654
31.133193 95.809 -90.2862
31.358797 95.876 -90.4623
31.586035 95.944 -90.7010
31.814921 96.010 -91.0064
32.045465 96.075 -91.3750
32.277680 96.137 -91.7918
32.511577 96.193 -92.2299
32.747169 96.242 -92.6534
32.984469 96.286 -93.0238
33.223488 96.328 -93.3078
33.464239 96.369 -93.4856
33.706735 96.415 -93.5548
33.950987 96.467 -93.5306
34.197010 96.526 -93.4411
34.444816 96.592 -93.3189
34.694417 96.663 -93.1942
34.945827 96.736 -93.0906
35.199059 96.810 -93.0257
35.454126 96.885 -93.0141
35.711041 96.963 -93.0698
35.969818 97.042 -93.2059
36.230470 97.121 -93.4309
36.493011 97.199 -93.7411
36.757455 97.270 -94.1161
37.023814 97.333 -94.5192
37.292104 97.387 -94.9046
37.562338 97.435 -95.2300
37.834530 97.481 -95.4716
38.108695 97.530 -95.6335
38.384846 97.587 -95.7466
38.662999 97.652 -95.8568
38.943167 97.720 -96.0052
39.225365 97.785 -96.2104
39.509608 97.844 -96.4622
39.795911 97.893 -96.7287
40.084289 97.938 -96.9730
40.374756 97.985 -97.1719
40.667328 98.041 -97.3272
40.962020 98.112 -97.4627
41.258848 98.195 -97.6081
41.557827 98.286 -97.7791
41.858972 98.377 -97.9673
42.162299 98.463 -98.1437
42.467824 98.542 -98.2754
42.775564 98.617 -98.3448
43.085533 98.691 -98.3607
43.397749 98.766 -98.3551
43.712227 98.843 -98.3660
44.028983 98.919 -98.4185
44.348036 98.992 -98.5157
44.669400 99.063 -98.6437
44.993093 99.135 -98.7871
45.319131 99.212 -98.9411
45.647532 99.297 -99.1132
45.978313 99.388 -99.3132
46.311491 99.481 -99.5401
46.647083 99.573 -99.7800
46.985107 99.662 -100.0166
47.325581 99.750 -100.2507
47.668521 99.840 -100.5110
48.013947 99.932 -100.8459
48.361876 100.020 -101.2956
48.712326 100.097 -101.8610
49.065315 100.157 -102.4893
49.420863 100.198 -103.0868
49.778987 100.228 -103.5541
50.139706 100.260 -103.8266
50.503039 100.307 -103.8987
50.869005 100.375 -103.8193
51.237623 100.461 -103.6596
51.608912 100.557 -103.4776
51.982891 100.653 -103.3010
52.359580 100.742 -103.1364
52.739000 100.823 -102.9910
53.121168 100.896 -102.8876
53.506106 100.961 -102.8609
53.893833 101.017 -102.9405
54.284370 101.059 -103.1318
54.677737 101.087 -103.4107
55.073955 101.105 -103.7328
55.473043 101.121 -104.0520
55.875024 101.145 -104.3380
56.279917 101.189 -104.5825
56.687745 101.256 -104.7931
57.098527 101.343 -104.9813
57.512287 101.442 -105.1511
57.929045 101.541 -105.2988
58.348822 101.628 -105.4212
58.771642 101.698 -105.5249
59.197525 101.750 -105.6320
59.626495 101.789 -105.7756
60.058573 101.824 -105.9906
60.493782 101.868 -106.3014
60.932145 101.931 -106.7127
61.373685 102.017 -107.2037
61.818424 102.121 -107.7309
62.266386 102.234 -108.2384
62.717593 102.342 -108.6762
63.172071 102.436 -109.0198
63.629842 102.513 -109.2816
64.090930 102.573 -109.5061
64.555359 102.623 -109.7469
65.023154 102.669 -110.0378
65.494339 102.717 -110.3748
65.968938 102.772 -110.7224
66.446976 102.836 -111.0386
66.928478 102.908 -111.2988
67.413469 102.985 -111.5057
67.901975 103.060 -111.6815
68.394021 103.132 -111.8542
68.889632 103.200 -112.0472
69.388835 103.267 -112.2725
69.891655 103.336 -112.5293
70.398118 103.407 -112.8061
70.908252 103.480 -113.0895
71.422083 103.555 -113.3741
71.939636 103.629 -113.6667
72.460941 103.702 -113.9808
72.986023 103.774 -114.3251
73.514909 103.845 -114.6964
74.047629 103.916 -115.0808
74.584208 103.985 -115.4601
75.124676 104.053 -115.8198
75.669061 104.116 -116.1540
76.217390 104.176 -116.4680
76.769692 104.231 -116.7757
77.325997 104.285 -117.0928
77.886333 104.340 -117.4274
78.450730 104.397 -117.7758
79.019216 104.458 -118.1259
79.591822 104.523 -118.4654
80.168577 104.591 -118.7903
80.749512 104.663 -119.1075
81.334656 104.738 -119.4309
81.924040 104.815 -119.7732
82.517696 104.893 -120.1384
83.115653 104.971 -120.5216
83.717943 105.049 -120.9154
84.324598 105.126 -121.3170
84.935649 105.202 -121.7294
85.551128 105.275 -122.1559
86.171066 105.343 -122.5945
86.795497 105.402 -123.0381
87.424453 105.451 -123.4779
88.057967 105.489 -123.9055
88.696071 105.518 -124.3130
89.338800 105.543 -124.6994
89.986185 105.574 -125.0765
90.638262 105.614 -125.4647
91.295065 105.666 -125.8783
91.956626 105.726 -126.3175
92.622982 105.791 -126.7754
93.294166 105.857 -127.2467
93.970214 105.923 -127.7278
94.651161 105.986 -128.2124
95.337042 106.048 -128.6904
96.027894 106.108 -129.1520
96.723752 106.169 -129.5912
97.424652 106.228 -130.0072
98.130631 106.286 -130.4063
98.841726 106.342 -130.8030
99.557974 106.396 -131.2165
100.279412 106.447 -131.6613
101.006078 106.498 -132.1388
101.738010 106.548 -132.6399
102.475245 106.599 -133.1551
103.217823 106.650 -133.6807
103.965782 106.703 -134.2157
104.719161 106.756 -134.7556
105.477999 106.809 -135.2894
106.242336 106.860 -135.8034
107.012212 106.907 -136.2896
107.787666 106.951 -136.7534
108.568740 106.989 -137.2129
109.355474 107.025 -137.6889
110.147909 107.059 -138.1946
110.946086 107.092 -138.7323
111.750047 107.127 -139.2945
112.559834 107.164 -139.8695
113.375489 107.203 -140.4462
114.197055 107.243 -141.0186
115.024574 107.284 -141.5852
115.858089 107.325 -142.1441
116.697645 107.364 -142.6910
117.543284 107.401 -143.2221
118.395051 107.435 -143.7404
119.252990 107.467 -144.2568
120.117147 107.496 -144.7829
120.987565 107.524 -145.3224
121.864291 107.552 -145.8712
122.747370 107.580 -146.4242
123.636848 107.611 -146.9794
124.532771 107.641 -147.5336
125.435187 107.670 -148.0793
126.344142 107.696 -148.6126
127.259684 107.718 -149.1436
128.181860 107.736 -149.6915
129.110718 107.752 -150.2692
130.046308 107.764 -150.8742
130.988677 107.774 -151.4921
131.937875 107.782 -152.1051
132.893951 107.791 -152.6992
133.856956 107.800 -153.2678
134.826938 107.812 -153.8144
135.803950 107.825 -154.3538
136.788041 107.839 -154.9036
137.779264 107.852 -155.4710
138.777669 107.864 -156.0510
139.783309 107.875 -156.6345
140.796237 107.883 -157.2158
141.816504 107.890 -157.7908
142.844165 107.895 -158.3552
143.879273 107.898 -158.9073
144.921881 107.900 -159.4496
145.972045 107.899 -159.9850
147.029819 107.897 -160.5142
148.095257 107.895 -161.0396
149.168417 107.892 -161.5682
150.249353 107.890 -162.1068
151.338121 107.886 -162.6567
152.434780 107.880 -163.2132
153.539385 107.872 -163.7710
154.651995 107.862 -164.3263
155.772667 107.851 -164.8763
156.901460 107.839 -165.4184
158.038432 107.826 -165.9516
159.183644 107.813 -166.4764
160.337154 107.799 -166.9928
161.499023 107.784 -167.5011
162.669312 107.770 -168.0021
163.848081 107.755 -168.4986
165.035392 107.739 -168.9930
166.231306 107.724 -169.4864
167.435887 107.707 -169.9784
168.649196 107.689 -170.4692
169.871298 107.669 -170.9603
171.102255 107.647 -171.4527
172.342133 107.623 -171.9452
173.590995 107.597 -172.4341
174.848907 107.570 -172.9142
176.115934 107.543 -173.3825
177.392143 107.515 -173.8399
178.677599 107.488 -174.2899
179.972371 107.461 -174.7341
181.276525 107.434 -175.1724
182.590129 107.407 -175.6050
183.913252 107.379 -176.0336
185.245964 107.350 -176.4609
186.588332 107.320 -176.8880
187.940428 107.288 -177.3136
189.302322 107.255 -177.7354
190.674085 107.221 -178.1515
192.055788 107.185 -178.5615
193.447503 107.149 -178.9653
194.849303 107.112 -179.3617
196.261262 107.076 -179.7487
197.683452 107.039 179.8762
199.115948 107.002 179.5137
200.558824 106.965 179.1605
202.012156 106.928 178.8113
203.476019 106.891 178.4644
204.950490 106.854 178.1215
206.435646 106.818 177.7853
207.931564 106.781 177.4560
209.438322 106.743 177.1311
210.955998 106.705 176.8085
212.484672 106.665 176.4883
214.024424 106.626 176.1710
215.575333 106.586 175.8558
217.137481 106.547 175.5410
218.710948 106.508 175.2264
220.295818 106.468 174.9128
221.892172 106.429 174.6015
223.500094 106.388 174.2952
225.119668 106.347 173.9968
226.750978 106.305 173.7073
228.394109 106.261 173.4246
230.049147 106.216 173.1437
231.716178 106.169 172.8612
233.395289 106.121 172.5786
235.086567 106.071 172.3011
236.790102 106.019 172.0333
238.505980 105.967 171.7773
240.234293 105.914 171.5327
241.975130 105.863 171.2987
243.728581 105.813 171.0774
245.494739 105.763 170.8709
247.273695 105.714 170.6775
249.065542 105.665 170.4888
250.870374 105.617 170.2945
252.688284 105.568 170.0916
254.519367 105.518 169.8853
256.363720 105.467 169.6820
258.221437 105.415 169.4858
260.092616 105.361 169.2993
261.977354 105.307 169.1266
263.875750 105.252 168.9735
265.787903 105.197 168.8448
267.713911 105.141 168.7412
269.653877 105.085 168.6589
271.607900 105.031 168.5916
273.576083 104.978 168.5344
275.558528 104.928 168.4843
277.555338 104.880 168.4386
279.566619 104.835 168.3949
281.592474 104.791 168.3527
283.633009 104.750 168.3117
285.688331 104.709 168.2706
287.758546 104.670 168.2268
289.843763 104.631 168.1782
291.944090 104.592 168.1261
294.059638 104.553 168.0731
296.190515 104.514 168.0205
298.336833 104.475 167.9677
300.498705 104.437 167.9139
302.676243 104.398 167.8584
304.869559 104.359 167.8000
307.078770 104.319 167.7388
309.303989 104.278 167.6777
311.545334 104.237 167.6201
313.802919 104.196 167.5674
316.076865 104.155 167.5189
318.367288 104.112 167.4745
320.674309 104.069 167.4379
322.998047 104.026 167.4149
325.338624 103.983 167.4098
327.696162 103.940 167.4238
330.070783 103.897 167.4546
332.462612 103.855 167.4963
334.871773 103.814 167.5432
337.298392 103.774 167.5935
339.742595 103.734 167.6478
342.204510 103.697 167.7062
344.684265 103.661 167.7675
347.181989 103.627 167.8311
349.697813 103.594 167.8972
352.231868 103.562 167.9662
354.784285 103.532 168.0355
357.355198 103.505 168.0992
359.944741 103.479 168.1501
362.553049 103.456 168.1823
365.180258 103.434 168.1940
367.826505 103.415 168.1886
370.491927 103.395 168.1710
373.176665 103.375 168.1460
375.880856 103.353 168.1195
378.604644 103.329 168.0954
381.348169 103.303 168.0735
384.111575 103.275 168.0520
386.895006 103.247 168.0317
389.698607 103.218 168.0159
392.522524 103.188 168.0084
395.366904 103.156 168.0122
398.231895 103.123 168.0278
401.117648 103.088 168.0537
404.024312 103.054 168.0881
406.952038 103.020 168.1301
409.900981 102.987 168.1777
412.871292 102.955 168.2288
415.863128 102.921 168.2830
418.876643 102.888 168.3415
421.911996 102.853 168.4041
424.969344 102.819 168.4692
428.048847 102.786 168.5367
431.150666 102.755 168.6071
434.274961 102.727 168.6805
437.421897 102.701 168.7565
440.591636 102.677 168.8347
443.784345 102.655 168.9141
447.000189 102.634 168.9910
450.239337 102.615 169.0597
453.501956 102.597 169.1139
456.788219 102.580 169.1480
460.098294 102.563 169.1596
463.432356 102.544 169.1509
466.790578 102.523 169.1281
470.173135 102.501 169.0991
473.580203 102.476 169.0722
477.011961 102.448 169.0553
480.468586 102.416 169.0555
483.950259 102.382 169.0762
487.457163 102.345 169.1151
490.989478 102.306 169.1686
494.547390 102.267 169.2350
498.131084 102.228 169.3142
501.740748 102.189 169.4044
505.376568 102.151 169.4987
509.038735 102.113 169.5892
512.727439 102.077 169.6732
516.442874 102.041 169.7555
520.185232 102.007 169.8450
523.954708 101.973 169.9520
527.751500 101.941 170.0816
531.575805 101.909 170.2290
535.427822 101.878 170.3870
539.307753 101.848 170.5516
543.215800 101.819 170.7197
547.152165 101.790 170.8868
551.117055 101.762 171.0479
555.110677 101.734 171.2012
559.133237 101.706 171.3505
563.184947 101.678 171.5020
567.266018 101.651 171.6603
571.376661 101.625 171.8263
575.517092 101.600 171.9976
579.687526 101.577 172.1699
583.888181 101.554 172.3400
588.119275 101.532 172.5072
592.381030 101.509 172.6729
596.673667 101.486 172.8377
600.997410 101.462 173.0013
605.352485 101.437 173.1646
609.739119 101.412 173.3309
614.157540 101.388 173.5026
618.607979 101.366 173.6784
623.090667 101.344 173.8534
627.605839 101.324 174.0236
632.153730 101.305 174.1891
636.734576 101.285 174.3539
641.348617 101.265 174.5222
645.996094 101.245 174.6957
650.677248 101.225 174.8742
655.392323 101.205 175.0557
660.141566 101.186 175.2371
664.925224 101.167 175.4156
669.743546 101.149 175.5893
674.596784 101.131 175.7594
679.485191 101.114 175.9302
684.409020 101.098 176.1069
689.368530 101.082 176.2923
694.363979 101.067 176.4858
699.395626 101.051 176.6845
704.463736 101.035 176.8849
709.568570 101.019 177.0847
714.710396 101.003 177.2817
719.889483 100.988 177.4746
725.106099 100.973 177.6634
730.360516 100.959 177.8483
735.653010 100.945 178.0307
740.983855 100.931 178.2128
746.353329 100.917 178.3964
751.761713 100.903 178.5816
757.209288 100.890 178.7684
762.696339 100.877 178.9573
768.223151 100.864 179.1494
773.790013 100.852 179.3456
779.397214 100.839 179.5447
785.045047 100.827 179.7443
790.733808 100.814 179.9435
796.463791 100.802 -179.8564
802.235296 100.790 -179.6543
808.048623 100.777 -179.4509
813.904077 100.765 -179.2480
819.801961 100.752 -179.0478
825.742584 100.740 -178.8512
831.726255 100.728 -178.6585
837.753287 100.718 -178.4705
843.823992 100.709 -178.2864
849.938689 100.701 -178.1015
856.097695 100.692 -177.9092
862.301332 100.682 -177.7054
868.549922 100.670 -177.4892
874.843793 100.656 -177.2616
881.183272 100.641 -177.0259
887.568689 100.626 -176.7876
894.000378 100.613 -176.5514
900.478673 100.599 -176.3200
907.003913 100.587 -176.0944
913.576437 100.575 -175.8732
920.196588 100.563 -175.6532
926.864712 100.551 -175.4331
933.581156 100.539 -175.2146
940.346270 100.526 -174.9991
947.160407 100.513 -174.7856
954.023921 100.500 -174.5698
960.937172 100.486 -174.3454
967.900519 100.473 -174.1059
974.914325 100.460 -173.8486
981.978956 100.448 -173.5779
989.094780 100.437 -173.3026
996.262169 100.426 -173.0283
1003.481495 100.417 -172.7538
1010.753136 100.407 -172.4747
1018.077470 100.398 -172.1884
1025.454879 100.389 -171.8949
1032.885748 100.380 -171.5950
1040.370463 100.370 -171.2899
1047.909417 100.360 -170.9817
1055.503000 100.350 -170.6724
1063.151610 100.341 -170.3642
1070.855645 100.332 -170.0592
1078.615506 100.323 -169.7589
1086.431599 100.315 -169.4618
1094.304330 100.309 -169.1621
1102.234110 100.305 -168.8540
1110.221353 100.301 -168.5374
1118.266475 100.299 -168.2160
1126.369895 100.297 -167.8918
1134.532035 100.296 -167.5639
1142.753322 100.295 -167.2310
1151.034184 100.295 -166.8938
1159.375052 100.294 -166.5538
1167.776361 100.295 -166.2113
1176.238550 100.295 -165.8656
1184.762060 100.297 -165.5154
1193.347334 100.300 -165.1608
1201.994821 100.305 -164.8043
1210.704971 100.312 -164.4477
1219.478238 100.320 -164.0911
1228.315080 100.328 -163.7341
1237.215957 100.337 -163.3769
1246.181334 100.346 -163.0211
1255.211678 100.354 -162.6691
1264.307459 100.363 -162.3221
1273.469152 100.372 -161.9789
1282.697235 100.382 -161.6375
1291.992188 100.394 -161.2947
1301.354495 100.408 -160.9476
1310.784647 100.423 -160.5948
1320.283132 100.439 -160.2368
1329.850448 100.457 -159.8757
1339.487093 100.474 -159.5147
1349.193569 100.493 -159.1573
1358.970381 100.511 -158.8048
1368.818041 100.530 -158.4565
1378.737061 100.549 -158.1115
1388.727958 100.568 -157.7703
1398.791253 100.588 -157.4342
1408.927471 100.609 -157.1022
1419.137140 100.631 -156.7711
1429.420793 100.655 -156.4377
1439.778965 100.679 -156.1010
1450.212197 100.704 -155.7621
1460.721033 100.729 -155.4228
1471.306019 100.755 -155.0848
1481.967709 100.781 -154.7477
1492.706658 100.807 -154.4102
1503.523426 100.834 -154.0718
1514.418576 100.862 -153.7331
1525.392678 100.890 -153.3952
1536.446302 100.919 -153.0603
1547.580025 100.948 -152.7315
1558.794428 100.979 -152.4111
1570.090095 101.010 -152.0983
1581.467615 101.041 -151.7909
1592.927581 101.074 -151.4871
1604.470591 101.107 -151.1873
1616.097246 101.142 -150.8937
1627.808153 101.177 -150.6072
1639.603922 101.212 -150.3260
1651.485168 101.246 -150.0477
1663.452510 101.281 -149.7710
1675.506573 101.315 -149.4954
1687.647984 101.350 -149.2204
1699.877377 101.384 -148.9451
1712.195390 101.418 -148.6698
1724.602663 101.452 -148.3962
1737.099845 101.486 -148.1268
1749.687587 101.521 -147.8642
1762.366544 101.555 -147.6096
1775.137379 101.590 -147.3618
1788.000756 101.625 -147.1183
1800.957346 101.660 -146.8773
1814.007826 101.694 -146.6381
1827.152874 101.728 -146.4008
1840.393177 101.762 -146.1660
1853.729425 101.796 -145.9338
1867.162312 101.831 -145.7038
1880.692540 101.865 -145.4757
1894.320813 101.899 -145.2495
1908.047843 101.933 -145.0254
1921.874344 101.966 -144.8035
1935.801038 101.999 -144.5847
1949.828650 102.032 -144.3700
1963.957912 102.064 -144.1593
1978.189561 102.096 -143.9516
1992.524338 102.127 -143.7448
2006.962991 102.158 -143.5366
2021.506272 102.188 -143.3263
2036.154940 102.217 -143.1152
2050.909758 102.245 -142.9062
2065.771495 102.273 -142.7018
2080.740927 102.299 -142.5021
2095.818833 102.323 -142.3049
2111.006001 102.346 -142.1062
2126.303220 102.368 -141.9018
2141.711290 102.388 -141.6900
2157.231013 102.406 -141.4711
2172.863198 102.422 -141.2458
2188.608660 102.437 -141.0131
2204.468221 102.449 -140.7706
2220.442706 102.458 -140.5154
2236.532950 102.466 -140.2446
2252.739789 102.473 -139.9548
2269.064070 102.478 -139.6412
2285.506644 102.481 -139.2985
2302.068367 102.485 -138.9236
2318.750104 102.489 -138.5165
2335.552723 102.494 -138.0776
2352.477101 102.500 -137.6071
2369.524119 102.507 -137.1054
2386.694668 102.517 -136.5739
2403.989641 102.529 -136.0150
2421.409941 102.544 -135.4308
2438.956476 102.561 -134.8239
2456.630160 102.582 -134.1979
2474.431915 102.606 -133.5550
2492.362668 102.632 -132.8933
2510.423356 102.660 -132.2094
2528.614918 102.692 -131.5002
2546.938304 102.727 -130.7604
2565.394469 102.766 -129.9829
2583.984375 102.810 -129.1622
2602.708991 102.860 -128.2967
2621.569293 102.918 -127.3874
2640.566265 102.985 -126.4371
2659.700897 103.063 -125.4508
2678.974186 103.154 -124.4389
2698.387137 103.259 -123.4156
2717.940763 103.378 -122.3958
2737.636082 103.510 -121.3931
2757.474121 103.656 -120.4194
2777.455915 103.814 -119.4861
2797.582506 103.983 -118.6035
2817.854942 104.162 -117.7779
2838.274281 104.350 -117.0104
2858.841586 104.545 -116.3010
2879.557931 104.746 -115.6493
2900.424394 104.954 -115.0535
2921.442065 105.167 -114.5092
2942.612039 105.385 -114.0116
2963.935418 105.609 -113.5559
2985.413316 105.840 -113.1390
3007.046852 106.079 -112.7618
3028.837153 106.328 -112.4311
3050.785356 106.588 -112.1591
3072.892604 106.860 -111.9615
3095.160050 107.142 -111.8572
3117.588856 107.435 -111.8645
3140.180190 107.736 -111.9986
3162.935230 108.043 -112.2702
3185.855163 108.353 -112.6861
3208.941182 108.664 -113.2506
3232.194493 108.973 -113.9689
3255.616307 109.280 -114.8459
3279.207844 109.580 -115.8834
3302.970336 109.871 -117.0791
3326.905021 110.151 -118.4282
3351.013146 110.417 -119.9251
3375.295969 110.667 -121.5636
3399.754755 110.899 -123.3360
3424.390779 111.109 -125.2318
3449.205326 111.296 -127.2379
3474.199690 111.458 -129.3382
3499.375173 111.593 -131.5152
3524.733088 111.700 -133.7495
3550.274757 111.778 -136.0205
3576.001511 111.826 -138.3066
3601.914692 111.846 -140.5861
3628.015651 111.836 -142.8375
3654.305748 111.799 -145.0414
3680.786354 111.737 -147.1800
3707.458849 111.650 -149.2378
3734.324624 111.542 -151.2011
3761.385080 111.413 -153.0579
3788.641627 111.267 -154.7990
3816.095686 111.107 -156.4185
3843.748688 110.933 -157.9128
3871.602076 110.750 -159.2812
3899.657300 110.559 -160.5253
3927.915825 110.363 -161.6482
3956.379122 110.162 -162.6547
3985.048676 109.959 -163.5503
4013.925981 109.754 -164.3407
4043.012544 109.549 -165.0317
4072.309879 109.344 -165.6286
4101.819515 109.139 -166.1356
4131.542990 108.936 -166.5557
4161.481854 108.733 -166.8913
4191.637667 108.533 -167.1441
4222.012001 108.335 -167.3157
4252.606441 108.140 -167.4077
4283.422580 107.949 -167.4214
4314.462026 107.762 -167.3585
4345.726396 107.580 -167.2215
4377.217321 107.404 -167.0140
4408.936442 107.235 -166.7408
4440.885413 107.074 -166.4075
4473.065899 106.921 -166.0200
4505.479579 106.776 -165.5840
4538.128141 106.640 -165.1051
4571.013288 106.514 -164.5888
4604.136735 106.397 -164.0406
4637.500207 106.290 -163.4671
4671.105446 106.193 -162.8762
4704.954201 106.106 -162.2768
4739.048239 106.030 -161.6790
4773.389336 105.963 -161.0931
4807.979283 105.905 -160.5294
4842.819883 105.855 -159.9973
4877.912952 105.810 -159.5041
4913.260320 105.770 -159.0542
4948.863830 105.731 -158.6483
4984.725337 105.692 -158.2830
5020.846712 105.650 -157.9503
5057.229836 105.605 -157.6386
5093.876609 105.555 -157.3340
5130.788938 105.500 -157.0210
5167.968750 105.439 -156.6840
5205.417982 105.373 -156.3073
5243.138586 105.305 -155.8772
5281.132530 105.236 -155.3832
5319.401793 105.168 -154.8192
5357.948371 105.105 -154.1844
5396.774274 105.049 -153.4834
5435.881525 105.002 -152.7259
5475.272163 104.966 -151.9253
5514.948243 104.941 -151.0960
5554.911831 104.929 -150.2521
5595.165012 104.929 -149.4057
5635.709884 104.941 -148.5673
5676.548561 104.964 -147.7454
5717.683172 104.997 -146.9470
5759.115861 105.041 -146.1777
5800.848789 105.094 -145.4421
5842.884130 105.157 -144.7451
5885.224077 105.228 -144.0911
5927.870837 105.308 -143.4847
5970.826633 105.396 -142.9296
6014.093704 105.490 -142.4293
6057.674306 105.592 -141.9871
6101.570711 105.699 -141.6064
6145.785208 105.813 -141.2909
6190.320101 105.931 -141.0442
6235.177712 106.055 -140.8696
6280.360380 106.182 -140.7708
6325.870460 106.312 -140.7513
6371.710325 106.444 -140.8148
6417.882365 106.578 -140.9644
6464.388986 106.712 -141.2017
6511.232613 106.845 -141.5276
6558.415689 106.977 -141.9418
6605.940673 107.107 -142.4439
6653.810042 107.234 -143.0342
6702.026292 107.357 -143.7142
6750.591937 107.475 -144.4864
6799.509509 107.587 -145.3533
6848.781558 107.692 -146.3152
6898.410653 107.786 -147.3687
6948.399380 107.869 -148.5061
6998.750346 107.939 -149.7165
7049.466176 107.996 -150.9881
7100.549514 108.040 -152.3112
7152.003023 108.072 -153.6821
7203.829385 108.093 -155.1032
7256.031302 108.103 -156.5828
7308.611496 108.101 -158.1314
7361.572708 108.085 -159.7577
7414.917698 108.051 -161.4645
7468.649249 107.995 -163.2464
7522.770160 107.913 -165.0887
7577.283253 107.801 -166.9684
7632.191371 107.656 -168.8542
7687.497376 107.473 -170.7058
7743.204151 107.253 -172.4717
7799.314600 106.994 -174.0900
7855.831649 106.701 -175.4973
7912.758244 106.384 -176.6497
7970.097352 106.055 -177.5421
8027.851962 105.724 -178.2023
8086.025087 105.394 -178.6654
8144.619758 105.069 -178.9549
8203.639030 104.749 -179.0790
8263.085980 104.433 -179.0370
8322.963708 104.125 -178.8261
8383.275334 103.828 -178.4465
8444.024002 103.543 -177.9041
8505.212881 103.277 -177.2114
8566.845160 103.031 -176.3868
8628.924051 102.810 -175.4540
8691.452792 102.616 -174.4410
8754.434642 102.450 -173.3793
8817.872884 102.314 -172.3032
8881.770826 102.208 -171.2491
8946.131799 102.130 -170.2547
9010.959157 102.078 -169.3570
9076.256282 102.048 -168.5900
9142.026576 102.035 -167.9809
9208.273470 102.031 -167.5459
9275.000415 102.029 -167.2873
9342.210891 102.022 -167.1915
9409.908403 102.003 -167.2286
9478.096478 101.966 -167.3542
9546.778672 101.909 -167.5136
9615.958566 101.832 -167.6487
9685.639765 101.738 -167.7055
9755.825904 101.632 -167.6418
9826.520640 101.524 -167.4341
9897.727659 101.420 -167.0814
9969.450674 101.329 -166.6043
10041.693423 101.256 -166.0395
10114.459673 101.204 -165.4292
10187.753217 101.170 -164.8099
10261.577877 101.154 -164.2034
10335.937500 101.152 -163.6131
10410.835964 101.162 -163.0257
10486.277173 101.184 -162.4185
10562.265060 101.221 -161.7678
10638.803587 101.280 -161.0584
10715.896743 101.367 -160.2915
10793.548548 101.492 -159.4925
10871.763050 101.661 -158.7155
10950.544327 101.877 -158.0391
11029.896485 102.137 -157.5475
11109.823662 102.434 -157.3057
11190.330024 102.757 -157.3463
11271.419768 103.100 -157.6738
11353.097122 103.455 -158.2754
11435.366344 103.820 -159.1308
11518.231722 104.195 -160.2184
11601.697577 104.582 -161.5225
11685.768261 104.983 -163.0387
11770.448155 105.404 -164.7777
11855.741674 105.849 -166.7668
11941.653265 106.320 -169.0480
12028.187408 106.818 -171.6743
12115.348612 107.340 -174.7053
12203.141422 107.879 -178.2031
12291.570415 108.426 177.7724
12380.640201 108.967 173.1700
12470.355424 109.484 167.9550
12560.720760 109.957 162.1167
12651.740920 110.364 155.6754
12743.420650 110.683 148.6880
12835.764729 110.893 141.2496
12928.777972 110.981 133.4893
13022.465227 110.938 125.5613
13116.831378 110.761 117.6295
13211.881345 110.456 109.8511
13307.620084 110.037 102.3618
13404.052584 109.521 95.2649
13501.183875 108.928 88.6275
13599.019019 108.280 82.4812
13697.563116 107.598 76.8259
13796.821305 106.903 71.6356
13896.798760 106.212 66.8638
13997.500692 105.540 62.4506
14098.932352 104.899 58.3287
14201.099028 104.295 54.4292
14304.006046 103.733 50.6859
14407.658770 103.215 47.0381
14512.062604 102.742 43.4326
14617.222992 102.310 39.8240
14723.145416 101.920 36.1744
14829.835397 101.568 32.4529
14937.298497 101.252 28.6337
15045.540320 100.973 24.6948
15154.566507 100.730 20.6150
15264.382743 100.525 16.3710
15374.994752 100.359 11.9352
15486.408302 100.235 7.2749
15598.629201 100.156 2.3514
15711.663298 100.123 -2.8794
15825.516487 100.141 -8.4659
15940.194703 100.209 -14.4600
16055.703925 100.329 -20.9161
16172.050174 100.499 -27.8911
16289.239516 100.717 -35.4442
16407.278061 100.979 -43.6352
16526.171961 101.276 -52.5226
16645.927415 101.599 -62.1603
16766.550667 101.935 -72.5955
16888.048005 102.270 -83.8654
17010.425762 102.585 -95.9944
17133.690320 102.861 -108.9914
17257.848103 103.078 -122.8467
17382.905584 103.217 -137.5280
17508.869284 103.259 -152.9822
17635.745768 103.192 -169.1376
17763.541652 103.007 174.0883
17892.263597 102.703 156.7761
18021.918315 102.284 138.9943
18152.512564 101.763 120.7869
18284.053153 101.154 102.1680
18416.546939 100.476 83.1189
18550.000830 99.748 63.5861
18684.421783 98.989 43.4846
18819.816805 98.214 22.6879
18956.192956 97.436 0.9936
19093.557344 96.662 -21.9499
19231.917131 95.899 -46.7452
19371.279531 95.153 -74.1248
19511.651807 94.440 -103.7899
19653.041280 93.796 -132.1478
19795.455318 93.287 -153.4937
19938.901348 92.998 -164.5406
