* Measurement data measured by REW V5.20.9
* Source: Input device not selected, no input selected, L, volume: no control. Timing signal peak level -25,0 dBFS, measurement signal peak level -23,1 dBFS
* Format: 256k Log Swept Sine, 1 sweep at -12,0 dBFS using an acoustic timing reference
* Dated: 18.08.2024 9:54:20
* REW Settings:
*  C-weighting compensation: Off
*  Target level: 75.0 dB
* Note: Delay -0,0185 ms (-6,4 mm, -0,25 in) using estimated IR delay relative to Acoustic reference on  R with no timing offset
* Measurement: 400
* Smoothing: 1/12 octave
* Frequency Step: 96 ppo
* Start Frequency: 20.187378 Hz
*
* Freq(Hz) SPL(dB) Phase(degrees)
20.187378 80.396 -45.2552
20.333664 80.473 -45.5540
20.481010 80.582 -45.9631
20.629424 80.708 -46.4051
20.778913 80.837 -46.8113
20.929486 80.961 -47.1295
21.081150 81.075 -47.3256
21.233912 81.176 -47.3822
21.387782 81.266 -47.2967
21.542767 81.347 -47.0808
21.698874 81.422 -46.7583
21.856113 81.495 -46.3646
22.014492 81.571 -45.9439
22.174018 81.651 -45.5464
22.334700 81.738 -45.2248
22.496546 81.833 -45.0293
22.659566 81.938 -45.0036
22.823766 82.049 -45.1804
22.989157 82.166 -45.5787
23.155745 82.286 -46.2008
23.323542 82.406 -47.0323
23.492554 82.522 -48.0421
23.662790 82.632 -49.1845
23.834261 82.733 -50.4023
24.006973 82.823 -51.6305
24.180938 82.901 -52.8014
24.356163 82.970 -53.8497
24.532658 83.032 -54.7189
24.710431 83.091 -55.3664
24.889493 83.152 -55.7696
25.069853 83.221 -55.9294
25.251519 83.303 -55.8717
25.434502 83.403 -55.6453
25.618811 83.519 -55.3149
25.804456 83.652 -54.9512
25.991445 83.795 -54.6197
26.179790 83.943 -54.3709
26.369500 84.089 -54.2346
26.560584 84.225 -54.2181
26.753053 84.349 -54.3097
26.946917 84.457 -54.4838
27.142185 84.551 -54.7080
27.338869 84.633 -54.9498
27.536977 84.708 -55.1832
27.736522 84.780 -55.3922
27.937512 84.854 -55.5724
28.139959 84.934 -55.7292
28.343872 85.019 -55.8744
28.549264 85.110 -56.0205
28.756143 85.202 -56.1759
28.964522 85.293 -56.3422
29.174411 85.380 -56.5139
29.385821 85.462 -56.6805
29.598763 85.537 -56.8311
29.813248 85.608 -56.9587
30.029287 85.677 -57.0639
30.246891 85.747 -57.1566
30.466073 85.822 -57.2544
30.686842 85.903 -57.3783
30.909212 85.990 -57.5474
31.133193 86.081 -57.7730
31.358797 86.176 -58.0558
31.586035 86.272 -58.3850
31.814921 86.368 -58.7414
32.045465 86.464 -59.1028
32.277680 86.561 -59.4496
32.511577 86.659 -59.7696
32.747169 86.759 -60.0601
32.984469 86.861 -60.3273
33.223488 86.964 -60.5829
33.464239 87.064 -60.8390
33.706735 87.159 -61.1038
33.950987 87.245 -61.3798
34.197010 87.323 -61.6644
34.444816 87.392 -61.9533
34.694417 87.456 -62.2446
34.945827 87.518 -62.5420
35.199059 87.583 -62.8560
35.454126 87.654 -63.2007
35.711041 87.733 -63.5887
35.969818 87.820 -64.0251
36.230470 87.914 -64.5037
36.493011 88.012 -65.0068
36.757455 88.114 -65.5099
37.023814 88.220 -65.9891
37.292104 88.329 -66.4280
37.562338 88.443 -66.8229
37.834530 88.560 -67.1817
38.108695 88.680 -67.5175
38.384846 88.797 -67.8406
38.662999 88.909 -68.1514
38.943167 89.012 -68.4376
39.225365 89.106 -68.6793
39.509608 89.193 -68.8585
39.795911 89.277 -68.9698
40.084289 89.362 -69.0269
40.374756 89.451 -69.0625
40.667328 89.544 -69.1181
40.962020 89.639 -69.2309
41.258848 89.733 -69.4209
41.557827 89.822 -69.6877
41.858972 89.904 -70.0144
42.162299 89.982 -70.3772
42.467824 90.057 -70.7542
42.775564 90.130 -71.1287
43.085533 90.199 -71.4859
43.397749 90.260 -71.8073
43.712227 90.310 -72.0683
44.028983 90.347 -72.2449
44.348036 90.375 -72.3277
44.669400 90.401 -72.3373
44.993093 90.437 -72.3273
45.319131 90.491 -72.3710
45.647532 90.570 -72.5306
45.978313 90.675 -72.8278
46.311491 90.807 -73.2320
46.647083 90.966 -73.6752
46.985107 91.151 -74.0869
47.325581 91.356 -74.4272
47.668521 91.570 -74.7002
48.013947 91.772 -74.9398
48.361876 91.942 -75.1808
48.712326 92.060 -75.4371
49.065315 92.118 -75.6981
49.420863 92.121 -75.9442
49.778987 92.086 -76.1675
50.139706 92.036 -76.3833
50.503039 91.997 -76.6240
50.869005 91.987 -76.9171
51.237623 92.015 -77.2657
51.608912 92.079 -77.6464
51.982891 92.170 -78.0261
52.359580 92.275 -78.3830
52.739000 92.380 -78.7139
53.121168 92.476 -79.0257
53.506106 92.559 -79.3215
53.893833 92.635 -79.5950
54.284370 92.716 -79.8367
54.677737 92.814 -80.0451
55.073955 92.936 -80.2299
55.473043 93.077 -80.4028
55.875024 93.226 -80.5667
56.279917 93.365 -80.7140
56.687745 93.480 -80.8365
57.098527 93.564 -80.9401
57.512287 93.618 -81.0495
57.929045 93.649 -81.2009
58.348822 93.671 -81.4287
58.771642 93.696 -81.7535
59.197525 93.736 -82.1792
59.626495 93.798 -82.6938
60.058573 93.878 -83.2734
60.493782 93.972 -83.8858
60.932145 94.071 -84.4969
61.373685 94.170 -85.0793
61.818424 94.267 -85.6166
62.266386 94.361 -86.1002
62.717593 94.453 -86.5202
63.172071 94.541 -86.8618
63.629842 94.625 -87.1131
64.090930 94.704 -87.2813
64.555359 94.778 -87.4022
65.023154 94.848 -87.5327
65.494339 94.914 -87.7289
65.968938 94.978 -88.0230
66.446976 95.044 -88.4134
66.928478 95.114 -88.8695
67.413469 95.191 -89.3482
67.901975 95.273 -89.8101
68.394021 95.357 -90.2311
68.889632 95.439 -90.6049
69.388835 95.517 -90.9396
69.891655 95.591 -91.2509
70.398118 95.665 -91.5555
70.908252 95.744 -91.8660
71.422083 95.830 -92.1889
71.939636 95.923 -92.5255
72.460941 96.021 -92.8752
72.986023 96.119 -93.2400
73.514909 96.215 -93.6242
74.047629 96.307 -94.0308
74.584208 96.393 -94.4565
75.124676 96.474 -94.8918
75.669061 96.550 -95.3258
76.217390 96.624 -95.7519
76.769692 96.696 -96.1683
77.325997 96.768 -96.5776
77.886333 96.841 -96.9868
78.450730 96.918 -97.4057
79.019216 96.999 -97.8424
79.591822 97.082 -98.2970
80.168577 97.166 -98.7625
80.749512 97.249 -99.2294
81.334656 97.332 -99.6893
81.924040 97.413 -100.1333
82.517696 97.495 -100.5538
83.115653 97.577 -100.9504
83.717943 97.660 -101.3321
84.324598 97.742 -101.7125
84.935649 97.821 -102.1050
85.551128 97.897 -102.5225
86.171066 97.972 -102.9759
86.795497 98.044 -103.4689
87.424453 98.116 -103.9942
88.057967 98.184 -104.5347
88.696071 98.250 -105.0701
89.338800 98.313 -105.5857
89.986185 98.376 -106.0788
90.638262 98.441 -106.5553
91.295065 98.512 -107.0191
91.956626 98.588 -107.4685
92.622982 98.670 -107.9039
93.294166 98.755 -108.3362
93.970214 98.841 -108.7838
94.651161 98.924 -109.2621
95.337042 99.004 -109.7766
96.027894 99.083 -110.3251
96.723752 99.161 -110.9027
97.424652 99.238 -111.5038
98.130631 99.314 -112.1195
98.841726 99.387 -112.7364
99.557974 99.459 -113.3404
100.279412 99.530 -113.9218
101.006078 99.603 -114.4801
101.738010 99.677 -115.0214
102.475245 99.751 -115.5556
103.217823 99.823 -116.0942
103.965782 99.893 -116.6487
104.719161 99.961 -117.2269
105.477999 100.026 -117.8303
106.242336 100.091 -118.4529
107.012212 100.154 -119.0803
107.787666 100.217 -119.6982
108.568740 100.280 -120.3049
109.355474 100.341 -120.9141
110.147909 100.401 -121.5406
110.946086 100.459 -122.1900
111.750047 100.517 -122.8579
112.559834 100.573 -123.5368
113.375489 100.628 -124.2207
114.197055 100.680 -124.9051
115.024574 100.732 -125.5856
115.858089 100.784 -126.2597
116.697645 100.837 -126.9285
117.543284 100.892 -127.5951
118.395051 100.948 -128.2636
119.252990 101.002 -128.9390
120.117147 101.054 -129.6268
120.987565 101.101 -130.3316
121.864291 101.143 -131.0563
122.747370 101.181 -131.8002
123.636848 101.217 -132.5570
124.532771 101.254 -133.3122
125.435187 101.293 -134.0475
126.344142 101.334 -134.7536
127.259684 101.376 -135.4380
128.181860 101.417 -136.1169
129.110718 101.456 -136.8049
130.046308 101.493 -137.5132
130.988677 101.527 -138.2489
131.937875 101.561 -139.0128
132.893951 101.593 -139.7994
133.856956 101.624 -140.6015
134.826938 101.653 -141.4129
135.803950 101.680 -142.2291
136.788041 101.704 -143.0455
137.779264 101.726 -143.8542
138.777669 101.745 -144.6467
139.783309 101.762 -145.4235
140.796237 101.776 -146.1987
141.816504 101.786 -146.9908
142.844165 101.792 -147.8083
143.879273 101.795 -148.6455
144.921881 101.793 -149.4918
145.972045 101.789 -150.3371
147.029819 101.781 -151.1721
148.095257 101.771 -151.9886
149.168417 101.758 -152.7831
150.249353 101.741 -153.5564
151.338121 101.720 -154.3099
152.434780 101.694 -155.0421
153.539385 101.666 -155.7507
154.651995 101.635 -156.4343
155.772667 101.603 -157.0929
156.901460 101.570 -157.7273
158.038432 101.538 -158.3388
159.183644 101.506 -158.9286
160.337154 101.476 -159.4987
161.499023 101.448 -160.0519
162.669312 101.421 -160.5928
163.848081 101.397 -161.1269
165.035392 101.373 -161.6582
166.231306 101.351 -162.1878
167.435887 101.330 -162.7156
168.649196 101.309 -163.2428
169.871298 101.288 -163.7716
171.102255 101.268 -164.3038
172.342133 101.248 -164.8402
173.590995 101.230 -165.3795
174.848907 101.210 -165.9187
176.115934 101.190 -166.4553
177.392143 101.169 -166.9891
178.677599 101.146 -167.5220
179.972371 101.122 -168.0547
181.276525 101.096 -168.5868
182.590129 101.070 -169.1168
183.913252 101.043 -169.6428
185.245964 101.014 -170.1637
186.588332 100.984 -170.6791
187.940428 100.952 -171.1897
189.302322 100.918 -171.6966
190.674085 100.885 -172.2011
192.055788 100.851 -172.7032
193.447503 100.816 -173.1998
194.849303 100.781 -173.6877
196.261262 100.745 -174.1674
197.683452 100.708 -174.6409
199.115948 100.669 -175.1096
200.558824 100.630 -175.5746
202.012156 100.591 -176.0372
203.476019 100.550 -176.4978
204.950490 100.509 -176.9554
206.435646 100.468 -177.4077
207.931564 100.426 -177.8526
209.438322 100.384 -178.2900
210.955998 100.342 -178.7215
212.484672 100.300 -179.1485
214.024424 100.257 -179.5708
215.575333 100.214 -179.9864
217.137481 100.169 179.6077
218.710948 100.122 179.2143
220.295818 100.076 178.8351
221.892172 100.029 178.4701
223.500094 99.981 178.1169
225.119668 99.934 177.7719
226.750978 99.886 177.4310
228.394109 99.838 177.0909
230.049147 99.789 176.7495
231.716178 99.740 176.4070
233.395289 99.690 176.0663
235.086567 99.639 175.7304
236.790102 99.588 175.4002
238.505980 99.536 175.0759
240.234293 99.485 174.7601
241.975130 99.433 174.4573
243.728581 99.381 174.1706
245.494739 99.329 173.8985
247.273695 99.275 173.6345
249.065542 99.221 173.3720
250.870374 99.166 173.1091
252.688284 99.111 172.8477
254.519367 99.058 172.5895
256.363720 99.006 172.3359
258.221437 98.955 172.0889
260.092616 98.905 171.8514
261.977354 98.855 171.6258
263.875750 98.805 171.4144
265.787903 98.753 171.2191
267.713911 98.699 171.0399
269.653877 98.644 170.8729
271.607900 98.589 170.7112
273.576083 98.534 170.5490
275.558528 98.481 170.3856
277.555338 98.429 170.2250
279.566619 98.380 170.0708
281.592474 98.331 169.9244
283.633009 98.284 169.7842
285.688331 98.236 169.6468
287.758546 98.189 169.5078
289.843763 98.142 169.3668
291.944090 98.096 169.2290
294.059638 98.051 169.1013
296.190515 98.004 168.9883
298.336833 97.956 168.8905
300.498705 97.908 168.8032
302.676243 97.859 168.7199
304.869559 97.812 168.6373
307.078770 97.765 168.5563
309.303989 97.720 168.4793
311.545334 97.676 168.4070
313.802919 97.633 168.3377
316.076865 97.591 168.2700
318.367288 97.549 168.2029
320.674309 97.506 168.1365
322.998047 97.463 168.0740
325.338624 97.420 168.0215
327.696162 97.378 167.9898
330.070783 97.339 167.9912
332.462612 97.302 168.0344
334.871773 97.272 168.1230
337.298392 97.252 168.2543
339.742595 97.246 168.4131
342.204510 97.258 168.5650
344.684265 97.290 168.6573
347.181989 97.341 168.6293
349.697813 97.404 168.4298
352.231868 97.472 168.0298
354.784285 97.537 167.4189
357.355198 97.592 166.5947
359.944741 97.628 165.5558
362.553049 97.635 164.3066
365.180258 97.600 162.8735
367.826505 97.509 161.3263
370.491927 97.348 159.7950
373.176665 97.115 158.4686
375.880856 96.818 157.5620
378.604644 96.481 157.2494
381.348169 96.141 157.5876
384.111575 95.835 158.4844
386.895006 95.590 159.7385
389.698607 95.415 161.1222
392.522524 95.305 162.4536
395.366904 95.245 163.6253
398.231895 95.219 164.5989
401.117648 95.214 165.3821
404.024312 95.218 166.0054
406.952038 95.226 166.5027
409.900981 95.233 166.9019
412.871292 95.236 167.2241
415.863128 95.235 167.4863
418.876643 95.230 167.7038
421.911996 95.221 167.8903
424.969344 95.210 168.0567
428.048847 95.196 168.2094
431.150666 95.181 168.3501
434.274961 95.164 168.4781
437.421897 95.145 168.5943
440.591636 95.123 168.7023
443.784345 95.100 168.8079
447.000189 95.076 168.9152
450.239337 95.050 169.0252
453.501956 95.025 169.1356
456.788219 95.000 169.2432
460.098294 94.975 169.3465
463.432356 94.951 169.4465
466.790578 94.926 169.5454
470.173135 94.902 169.6456
473.580203 94.877 169.7488
477.011961 94.851 169.8563
480.468586 94.822 169.9686
483.950259 94.791 170.0858
487.457163 94.759 170.2067
490.989478 94.726 170.3303
494.547390 94.694 170.4553
498.131084 94.662 170.5794
501.740748 94.633 170.6986
505.376568 94.605 170.8100
509.038735 94.579 170.9149
512.727439 94.552 171.0194
516.442874 94.525 171.1309
520.185232 94.499 171.2559
523.954708 94.475 171.3986
527.751500 94.452 171.5558
531.575805 94.429 171.7189
535.427822 94.406 171.8820
539.307753 94.382 172.0439
543.215800 94.357 172.2047
547.152165 94.330 172.3645
551.117055 94.303 172.5256
555.110677 94.275 172.6905
559.133237 94.247 172.8585
563.184947 94.221 173.0251
567.266018 94.195 173.1843
571.376661 94.169 173.3325
575.517092 94.145 173.4710
579.687526 94.121 173.6055
583.888181 94.098 173.7433
588.119275 94.075 173.8898
592.381030 94.050 174.0449
596.673667 94.026 174.2053
600.997410 94.000 174.3688
605.352485 93.973 174.5357
609.739119 93.946 174.7076
614.157540 93.919 174.8855
618.607979 93.892 175.0681
623.090667 93.866 175.2530
627.605839 93.840 175.4377
632.153730 93.816 175.6199
636.734576 93.792 175.7969
641.348617 93.769 175.9691
645.996094 93.747 176.1402
650.677248 93.724 176.3130
655.392323 93.701 176.4890
660.141566 93.676 176.6712
664.925224 93.651 176.8649
669.743546 93.625 177.0734
674.596784 93.600 177.2947
679.485191 93.577 177.5209
684.409020 93.554 177.7436
689.368530 93.533 177.9588
694.363979 93.512 178.1677
699.395626 93.492 178.3721
704.463736 93.470 178.5735
709.568570 93.448 178.7737
714.710396 93.424 178.9754
719.889483 93.399 179.1822
725.106099 93.375 179.3963
730.360516 93.351 179.6163
735.653010 93.327 179.8368
740.983855 93.305 -179.9493
746.353329 93.285 -179.7464
751.761713 93.267 -179.5520
757.209288 93.251 -179.3597
762.696339 93.235 -179.1620
768.223151 93.219 -178.9536
773.790013 93.202 -178.7329
779.397214 93.184 -178.4995
785.045047 93.166 -178.2537
790.733808 93.148 -178.0024
796.463791 93.130 -177.7555
802.235296 93.113 -177.5178
808.048623 93.096 -177.2844
813.904077 93.080 -177.0466
819.801961 93.064 -176.8019
825.742584 93.047 -176.5551
831.726255 93.029 -176.3107
837.753287 93.009 -176.0703
843.823992 92.987 -175.8335
849.938689 92.963 -175.5995
856.097695 92.936 -175.3668
862.301332 92.909 -175.1323
868.549922 92.882 -174.8916
874.843793 92.854 -174.6417
881.183272 92.828 -174.3831
887.568689 92.802 -174.1186
894.000378 92.776 -173.8507
900.478673 92.751 -173.5792
907.003913 92.726 -173.3009
913.576437 92.702 -173.0123
920.196588 92.681 -172.7122
926.864712 92.661 -172.4006
933.581156 92.643 -172.0801
940.346270 92.624 -171.7542
947.160407 92.603 -171.4254
954.023921 92.582 -171.0960
960.937172 92.559 -170.7677
967.900519 92.535 -170.4394
974.914325 92.510 -170.1049
981.978956 92.486 -169.7557
989.094780 92.461 -169.3868
996.262169 92.437 -169.0000
1003.481495 92.414 -168.6023
1010.753136 92.393 -168.2018
1018.077470 92.374 -167.8023
1025.454879 92.355 -167.4053
1032.885748 92.336 -167.0126
1040.370463 92.317 -166.6250
1047.909417 92.298 -166.2402
1055.503000 92.280 -165.8523
1063.151610 92.262 -165.4542
1070.855645 92.245 -165.0404
1078.615506 92.228 -164.6092
1086.431599 92.213 -164.1621
1094.304330 92.197 -163.7009
1102.234110 92.182 -163.2237
1110.221353 92.168 -162.7258
1118.266475 92.155 -162.2057
1126.369895 92.142 -161.6695
1134.532035 92.130 -161.1295
1142.753322 92.118 -160.5983
1151.034184 92.107 -160.0831
1159.375052 92.097 -159.5850
1167.776361 92.087 -159.0985
1176.238550 92.079 -158.6129
1184.762060 92.072 -158.1144
1193.347334 92.067 -157.5923
1201.994821 92.064 -157.0444
1210.704971 92.063 -156.4784
1219.478238 92.064 -155.9064
1228.315080 92.066 -155.3357
1237.215957 92.068 -154.7677
1246.181334 92.070 -154.2031
1255.211678 92.072 -153.6418
1264.307459 92.074 -153.0795
1273.469152 92.076 -152.5072
1282.697235 92.079 -151.9182
1291.992188 92.082 -151.3138
1301.354495 92.084 -150.6992
1310.784647 92.087 -150.0775
1320.283132 92.090 -149.4498
1329.850448 92.093 -148.8182
1339.487093 92.098 -148.1849
1349.193569 92.104 -147.5505
1358.970381 92.111 -146.9117
1368.818041 92.120 -146.2614
1378.737061 92.129 -145.5946
1388.727958 92.140 -144.9106
1398.791253 92.152 -144.2086
1408.927471 92.165 -143.4841
1419.137140 92.180 -142.7305
1429.420793 92.196 -141.9453
1439.778965 92.213 -141.1321
1450.212197 92.229 -140.2957
1460.721033 92.246 -139.4407
1471.306019 92.263 -138.5716
1481.967709 92.282 -137.6908
1492.706658 92.305 -136.7973
1503.523426 92.333 -135.8894
1514.418576 92.365 -134.9677
1525.392678 92.403 -134.0345
1536.446302 92.444 -133.0890
1547.580025 92.489 -132.1262
1558.794428 92.538 -131.1394
1570.090095 92.590 -130.1244
1581.467615 92.648 -129.0820
1592.927581 92.711 -128.0170
1604.470591 92.778 -126.9335
1616.097246 92.849 -125.8308
1627.808153 92.924 -124.7033
1639.603922 93.003 -123.5439
1651.485168 93.088 -122.3504
1663.452510 93.181 -121.1263
1675.506573 93.283 -119.8765
1687.647984 93.396 -118.6041
1699.877377 93.521 -117.3111
1712.195390 93.657 -116.0025
1724.602663 93.805 -114.6892
1737.099845 93.966 -113.3857
1749.687587 94.140 -112.1045
1762.366544 94.326 -110.8504
1775.137379 94.524 -109.6205
1788.000756 94.733 -108.4114
1800.957346 94.954 -107.2248
1814.007826 95.187 -106.0677
1827.152874 95.432 -104.9492
1840.393177 95.688 -103.8755
1853.729425 95.955 -102.8471
1867.162312 96.233 -101.8647
1880.692540 96.522 -100.9378
1894.320813 96.824 -100.0788
1908.047843 97.136 -99.2932
1921.874344 97.457 -98.5800
1935.801038 97.789 -97.9393
1949.828650 98.131 -97.3746
1963.957912 98.483 -96.8934
1978.189561 98.845 -96.5059
1992.524338 99.217 -96.2212
2006.962991 99.599 -96.0492
2021.506272 99.989 -96.0011
2036.154940 100.387 -96.0899
2050.909758 100.792 -96.3294
2065.771495 101.200 -96.7301
2080.740927 101.609 -97.2973
2095.818833 102.018 -98.0321
2111.006001 102.423 -98.9342
2126.303220 102.822 -100.0039
2141.711290 103.212 -101.2395
2157.231013 103.591 -102.6360
2172.863198 103.957 -104.1859
2188.608660 104.307 -105.8813
2204.468221 104.640 -107.7124
2220.442706 104.954 -109.6674
2236.532950 105.247 -111.7330
2252.739789 105.519 -113.8958
2269.064070 105.768 -116.1445
2285.506644 105.995 -118.4695
2302.068367 106.198 -120.8596
2318.750104 106.376 -123.3012
2335.552723 106.530 -125.7792
2352.477101 106.658 -128.2786
2369.524119 106.762 -130.7840
2386.694668 106.843 -133.2799
2403.989641 106.900 -135.7521
2421.409941 106.935 -138.1884
2438.956476 106.949 -140.5787
2456.630160 106.944 -142.9141
2474.431915 106.922 -145.1881
2492.362668 106.883 -147.3965
2510.423356 106.830 -149.5367
2528.614918 106.764 -151.6070
2546.938304 106.685 -153.6061
2565.394469 106.595 -155.5321
2583.984375 106.494 -157.3838
2602.708991 106.382 -159.1593
2621.569293 106.262 -160.8558
2640.566265 106.133 -162.4695
2659.700897 105.997 -163.9984
2678.974186 105.855 -165.4416
2698.387137 105.709 -166.8005
2717.940763 105.560 -168.0798
2737.636082 105.408 -169.2848
2757.474121 105.255 -170.4192
2777.455915 105.100 -171.4861
2797.582506 104.944 -172.4878
2817.854942 104.787 -173.4248
2838.274281 104.629 -174.2970
2858.841586 104.471 -175.1050
2879.557931 104.313 -175.8513
2900.424394 104.157 -176.5390
2921.442065 104.003 -177.1726
2942.612039 103.851 -177.7585
2963.935418 103.702 -178.3029
2985.413316 103.555 -178.8104
3007.046852 103.411 -179.2849
3028.837153 103.268 -179.7285
3050.785356 103.127 179.8590
3072.892604 102.987 179.4781
3095.160050 102.848 179.1284
3117.588856 102.710 178.8095
3140.180190 102.573 178.5212
3162.935230 102.437 178.2625
3185.855163 102.302 178.0317
3208.941182 102.169 177.8291
3232.194493 102.036 177.6550
3255.616307 101.905 177.5101
3279.207844 101.776 177.3952
3302.970336 101.648 177.3103
3326.905021 101.522 177.2536
3351.013146 101.399 177.2223
3375.295969 101.279 177.2125
3399.754755 101.161 177.2190
3424.390779 101.045 177.2376
3449.205326 100.930 177.2654
3474.199690 100.817 177.3008
3499.375173 100.704 177.3432
3524.733088 100.591 177.3935
3550.274757 100.477 177.4528
3576.001511 100.361 177.5221
3601.914692 100.243 177.6042
3628.015651 100.120 177.7056
3654.305748 99.992 177.8388
3680.786354 99.857 178.0259
3707.458849 99.715 178.2998
3734.324624 99.569 178.7039
3761.385080 99.425 179.2828
3788.641627 99.295 -179.9405
3816.095686 99.193 -178.9995
3843.748688 99.131 -178.0046
3871.602076 99.108 -177.1108
3899.657300 99.110 -176.4330
3927.915825 99.119 -175.9908
3956.379122 99.119 -175.7299
3985.048676 99.103 -175.5718
4013.925981 99.072 -175.4488
4043.012544 99.028 -175.3161
4072.309879 98.974 -175.1499
4101.819515 98.914 -174.9414
4131.542990 98.850 -174.6902
4161.481854 98.784 -174.3997
4191.637667 98.718 -174.0734
4222.012001 98.652 -173.7145
4252.606441 98.586 -173.3252
4283.422580 98.521 -172.9078
4314.462026 98.458 -172.4643
4345.726396 98.395 -171.9961
4377.217321 98.333 -171.5032
4408.936442 98.271 -170.9840
4440.885413 98.210 -170.4344
4473.065899 98.148 -169.8465
4505.479579 98.085 -169.2080
4538.128141 98.023 -168.5026
4571.013288 97.964 -167.7122
4604.136735 97.912 -166.8237
4637.500207 97.873 -165.8382
4671.105446 97.851 -164.7785
4704.954201 97.852 -163.6892
4739.048239 97.875 -162.6253
4773.389336 97.916 -161.6342
4807.979283 97.970 -160.7422
4842.819883 98.030 -159.9520
4877.912952 98.092 -159.2495
4913.260320 98.153 -158.6137
4948.863830 98.212 -158.0240
4984.725337 98.268 -157.4638
5020.846712 98.322 -156.9205
5057.229836 98.373 -156.3847
5093.876609 98.423 -155.8484
5130.788938 98.472 -155.3030
5167.968750 98.521 -154.7397
5205.417982 98.570 -154.1501
5243.138586 98.623 -153.5294
5281.132530 98.681 -152.8783
5319.401793 98.747 -152.2036
5357.948371 98.821 -151.5159
5396.774274 98.905 -150.8272
5435.881525 98.997 -150.1481
5475.272163 99.099 -149.4873
5514.948243 99.208 -148.8515
5554.911831 99.325 -148.2450
5595.165012 99.448 -147.6707
5635.709884 99.577 -147.1304
5676.548561 99.713 -146.6255
5717.683172 99.854 -146.1571
5759.115861 100.001 -145.7254
5800.848789 100.153 -145.3309
5842.884130 100.311 -144.9747
5885.224077 100.474 -144.6583
5927.870837 100.643 -144.3842
5970.826633 100.818 -144.1550
6014.093704 101.000 -143.9744
6057.674306 101.188 -143.8476
6101.570711 101.383 -143.7809
6145.785208 101.585 -143.7813
6190.320101 101.793 -143.8557
6235.177712 102.008 -144.0109
6280.360380 102.228 -144.2542
6325.870460 102.453 -144.5925
6371.710325 102.681 -145.0326
6417.882365 102.911 -145.5811
6464.388986 103.143 -146.2442
6511.232613 103.373 -147.0277
6558.415689 103.602 -147.9367
6605.940673 103.826 -148.9747
6653.810042 104.043 -150.1429
6702.026292 104.251 -151.4401
6750.591937 104.448 -152.8620
6799.509509 104.631 -154.4021
6848.781558 104.799 -156.0525
6898.410653 104.950 -157.8049
6948.399380 105.083 -159.6507
6998.750346 105.197 -161.5812
7049.466176 105.289 -163.5877
7100.549514 105.358 -165.6605
7152.003023 105.402 -167.7874
7203.829385 105.419 -169.9516
7256.031302 105.407 -172.1309
7308.611496 105.365 -174.2985
7361.572708 105.293 -176.4247
7414.917698 105.193 -178.4795
7468.649249 105.067 179.5639
7522.770160 104.918 177.7281
7577.283253 104.749 176.0298
7632.191371 104.565 174.4804
7687.497376 104.370 173.0859
7743.204151 104.168 171.8473
7799.314600 103.963 170.7607
7855.831649 103.758 169.8183
7912.758244 103.558 169.0089
7970.097352 103.364 168.3184
8027.851962 103.179 167.7299
8086.025087 103.005 167.2245
8144.619758 102.842 166.7820
8203.639030 102.690 166.3813
8263.085980 102.550 166.0016
8322.963708 102.420 165.6234
8383.275334 102.299 165.2298
8444.024002 102.182 164.8091
8505.212881 102.067 164.3569
8566.845160 101.950 163.8799
8628.924051 101.826 163.3997
8691.452792 101.694 162.9537
8754.434642 101.553 162.5923
8817.872884 101.410 162.3682
8881.770826 101.274 162.3175
8946.131799 101.162 162.4357
9010.959157 101.090 162.6601
9076.256282 101.068 162.8713
9142.026576 101.099 162.9189
9208.273470 101.174 162.6596
9275.000415 101.277 161.9897
9342.210891 101.387 160.8595
9409.908403 101.480 159.2710
9478.096478 101.538 157.2675
9546.778672 101.543 154.9222
9615.958566 101.482 152.3284
9685.639765 101.347 149.5930
9755.825904 101.133 146.8304
9826.520640 100.838 144.1572
9897.727659 100.466 141.6866
9969.450674 100.024 139.5232
10041.693423 99.522 137.7571
10114.459673 98.977 136.4568
10187.753217 98.407 135.6581
10261.577877 97.832 135.3487
10335.937500 97.273 135.4524
10410.835964 96.748 135.8274
10486.277173 96.261 136.2919
10562.265060 95.803 136.6797
10638.803587 95.349 136.9097
10715.896743 94.866 137.0466
10793.548548 94.324 137.3405
10871.763050 93.705 138.2534
10950.544327 93.026 140.4694
11029.896485 92.351 144.8115
11109.823662 91.807 151.8304
11190.330024 91.540 160.9196
11271.419768 91.622 169.9492
11353.097122 91.989 176.7858
11435.366344 92.487 -179.1811
11518.231722 92.982 -177.3972
11601.697577 93.395 -177.0272
11685.768261 93.698 -177.3602
11770.448155 93.896 -177.8771
11855.741674 94.013 -178.2216
11941.653265 94.084 -178.1700
12028.187408 94.153 -177.6196
12115.348612 94.261 -176.5937
12203.141422 94.447 -175.2499
12291.570415 94.731 -173.8629
12380.640201 95.110 -172.7621
12470.355424 95.556 -172.2330
12560.720760 96.033 -172.4322
12651.740920 96.502 -173.3637
12743.420650 96.940 -174.9198
12835.764729 97.340 -176.9557
12928.777972 97.704 -179.3560
13022.465227 98.041 177.9305
13116.831378 98.360 174.8884
13211.881345 98.658 171.4587
13307.620084 98.926 167.5716
13404.052584 99.144 163.1799
13501.183875 99.286 158.2859
13599.019019 99.325 152.9576
13697.563116 99.234 147.3336
13796.821305 98.997 141.6125
13896.798760 98.606 136.0282
13997.500692 98.067 130.8149
14098.932352 97.400 126.1688
14201.099028 96.634 122.2177
14304.006046 95.800 119.0052
14407.658770 94.932 116.4952
14512.062604 94.059 114.5928
14617.222992 93.199 113.1773
14723.145416 92.363 112.1339
14829.835397 91.553 111.3713
14937.298497 90.766 110.8262
15045.540320 89.997 110.4618
15154.566507 89.237 110.2674
15264.382743 88.479 110.2589
15374.994752 87.717 110.4742
15486.408302 86.947 110.9647
15598.629201 86.169 111.7857
15711.663298 85.385 112.9875
15825.516487 84.603 114.6090
15940.194703 83.830 116.6756
16055.703925 83.077 119.2009
16172.050174 82.355 122.1861
16289.239516 81.677 125.6160
16407.278061 81.057 129.4526
16526.171961 80.506 133.6300
16645.927415 80.037 138.0527
16766.550667 79.656 142.5989
16888.048005 79.365 147.1262
17010.425762 79.162 151.4822
17133.690320 79.039 155.5242
17257.848103 78.981 159.1432
17382.905584 78.971 162.2850
17508.869284 78.992 164.9559
17635.745768 79.032 167.2037
17763.541652 79.083 169.0793
17892.263597 79.143 170.5931
18021.918315 79.209 171.6947
18152.512564 79.269 172.2955
18284.053153 79.301 172.3274
18416.546939 79.275 171.8043
18550.000830 79.162 170.8513
18684.421783 78.939 169.6924
18819.816805 78.601 168.6045
18956.192956 78.158 167.8528
19093.557344 77.641 167.6091
19231.917131 77.088 167.8762
19371.279531 76.541 168.4819
19511.651807 76.033 169.1758
19653.041280 75.594 169.7577
19795.455318 75.260 170.1285
19938.901348 75.076 170.2508
