* Measurement data measured by REW V5.31.3
* Source: Input device not selected, no input selected, R, volume: no control
* Format: 256k Log Swept Sine, 1 sweep at -20,0 dBFS with no timing reference
* Dated: 26.01.2025 14:16:17
* REW Settings:
*  C-weighting compensation: Off
*  Target level: 75.0 dB
* Note: 
* Measurement: CLOSE
* Smoothing: 1/12 octave
* Frequency Step: 96 ppo
* Start Frequency: 20.141602 Hz
*
* Freq(Hz) SPL(dB) Phase(degrees)
20.141602 78.976 -75.9812
20.287556 79.036 -76.0823
20.434568 79.115 -76.2050
20.582645 79.197 -76.3062
20.731796 79.266 -76.3521
20.882027 79.315 -76.3241
21.033346 79.341 -76.2212
21.185763 79.349 -76.0636
21.339284 79.343 -75.8915
21.493917 79.331 -75.7617
21.649671 79.321 -75.7406
21.806553 79.317 -75.8933
21.964572 79.324 -76.2716
22.123737 79.343 -76.9024
22.284054 79.374 -77.7782
22.445534 79.417 -78.8538
22.608183 79.474 -80.0485
22.772012 79.545 -81.2538
22.937027 79.635 -82.3488
23.103238 79.752 -83.2170
23.270654 79.903 -83.7679
23.439282 80.098 -83.9565
23.609133 80.340 -83.7953
23.780215 80.631 -83.3573
23.952536 80.963 -82.7613
24.126106 81.322 -82.1469
24.300934 81.686 -81.6452
24.477028 82.032 -81.3539
24.654399 82.339 -81.3273
24.833055 82.586 -81.5746
25.013005 82.758 -82.0679
25.194260 82.847 -82.7519
25.376828 82.847 -83.5527
25.560719 82.761 -84.3874
25.745942 82.600 -85.1717
25.932508 82.380 -85.8311
26.120426 82.126 -86.3130
26.309705 81.870 -86.6022
26.500356 81.644 -86.7318
26.692388 81.480 -86.7829
26.885812 81.398 -86.8677
27.080638 81.400 -87.0951
27.276876 81.475 -87.5364
27.474535 81.598 -88.2021
27.673627 81.741 -89.0423
27.874161 81.878 -89.9619
28.076149 81.994 -90.8455
28.279600 82.078 -91.5800
28.484526 82.131 -92.0756
28.690937 82.160 -92.2815
28.898843 82.178 -92.1972
29.108256 82.196 -91.8744
29.319186 82.226 -91.4084
29.531645 82.273 -90.9170
29.745644 82.338 -90.5128
29.961193 82.415 -90.2764
30.178304 82.499 -90.2429
30.396989 82.584 -90.4011
30.617258 82.667 -90.7059
30.839123 82.749 -91.0966
31.062596 82.834 -91.5164
31.287688 82.926 -91.9266
31.514412 83.029 -92.3137
31.742778 83.141 -92.6862
31.972800 83.256 -93.0650
32.204488 83.367 -93.4692
32.437855 83.464 -93.9054
32.672913 83.538 -94.3626
32.909674 83.587 -94.8149
33.148151 83.610 -95.2297
33.388356 83.615 -95.5791
33.630302 83.612 -95.8508
33.874001 83.614 -96.0536
34.119466 83.631 -96.2160
34.366710 83.670 -96.3770
34.615745 83.733 -96.5717
34.866585 83.816 -96.8190
35.119243 83.914 -97.1160
35.373731 84.020 -97.4424
35.630064 84.129 -97.7715
35.888254 84.237 -98.0823
36.148315 84.340 -98.3677
36.410261 84.437 -98.6350
36.674104 84.524 -98.8991
36.939860 84.595 -99.1713
37.207542 84.649 -99.4509
37.477163 84.685 -99.7213
37.748738 84.705 -99.9552
38.022281 84.718 -100.1250
38.297806 84.734 -100.2161
38.575327 84.762 -100.2352
38.854860 84.811 -100.2101
39.136419 84.880 -100.1801
39.420017 84.966 -100.1825
39.705671 85.060 -100.2406
39.993395 85.154 -100.3617
40.283203 85.241 -100.5421
40.575112 85.316 -100.7755
40.869136 85.381 -101.0600
41.165290 85.439 -101.3989
41.463591 85.494 -101.7963
41.764053 85.553 -102.2511
42.066693 85.622 -102.7522
42.371525 85.706 -103.2774
42.678567 85.805 -103.7961
42.987834 85.916 -104.2740
43.299341 86.033 -104.6787
43.613106 86.146 -104.9873
43.929145 86.249 -105.1959
44.247473 86.338 -105.3290
44.568109 86.411 -105.4429
44.891068 86.473 -105.6147
45.216367 86.526 -105.9152
45.544023 86.580 -106.3732
45.874054 86.646 -106.9529
46.206476 86.743 -107.5594
46.541307 86.894 -108.0840
46.878565 87.120 -108.4696
47.218266 87.420 -108.7571
47.560429 87.771 -109.0697
47.905072 88.124 -109.5381
48.252212 88.425 -110.2217
48.601867 88.627 -111.0772
48.954056 88.705 -111.9807
49.308798 88.658 -112.7798
49.666109 88.511 -113.3526
50.026010 88.306 -113.6578
50.388520 88.095 -113.7540
50.753656 87.921 -113.7692
51.121437 87.809 -113.8289
51.491884 87.761 -113.9900
51.865016 87.765 -114.2309
52.240851 87.803 -114.4949
52.619410 87.858 -114.7446
53.000712 87.916 -114.9864
53.384777 87.965 -115.2575
53.771625 87.999 -115.5947
54.161276 88.017 -116.0106
54.553751 88.029 -116.4921
54.949070 88.047 -117.0139
55.347254 88.086 -117.5556
55.748323 88.150 -118.1100
56.152298 88.237 -118.6776
56.559201 88.334 -119.2533
56.969052 88.424 -119.8165
57.381873 88.496 -120.3312
57.797686 88.544 -120.7600
58.216512 88.573 -121.0814
58.638373 88.593 -121.3029
59.063291 88.616 -121.4588
59.491288 88.652 -121.5957
59.922386 88.707 -121.7553
60.356608 88.782 -121.9649
60.793977 88.872 -122.2387
61.234515 88.970 -122.5828
61.678246 89.068 -122.9963
62.125192 89.158 -123.4707
62.575377 89.235 -123.9921
63.028824 89.300 -124.5451
63.485557 89.357 -125.1179
63.945599 89.412 -125.7044
64.408975 89.467 -126.3026
64.875709 89.524 -126.9130
65.345825 89.581 -127.5355
65.819348 89.634 -128.1652
66.296302 89.677 -128.7892
66.776713 89.713 -129.3904
67.260604 89.745 -129.9553
67.748002 89.779 -130.4803
68.238932 89.822 -130.9712
68.733420 89.875 -131.4362
69.231490 89.934 -131.8835
69.733170 89.996 -132.3233
70.238485 90.056 -132.7696
70.747463 90.107 -133.2344
71.260128 90.148 -133.7207
71.776508 90.180 -134.2203
72.296630 90.206 -134.7208
72.820521 90.230 -135.2104
73.348209 90.252 -135.6774
73.879720 90.271 -136.1096
74.415083 90.289 -136.4996
74.954326 90.307 -136.8544
75.497475 90.328 -137.1968
76.044561 90.355 -137.5589
76.595612 90.390 -137.9745
77.150655 90.432 -138.4735
77.709720 90.476 -139.0743
78.272837 90.515 -139.7729
78.840034 90.541 -140.5384
79.411342 90.556 -141.3227
79.986789 90.565 -142.0786
80.566406 90.580 -142.7764
81.150224 90.609 -143.4115
81.738272 90.654 -143.9989
82.330581 90.710 -144.5573
82.927182 90.766 -145.0942
83.528107 90.815 -145.6059
84.133386 90.853 -146.0901
84.743051 90.880 -146.5564
85.357134 90.897 -147.0259
85.975667 90.904 -147.5232
86.598682 90.900 -148.0671
87.226212 90.889 -148.6645
87.858289 90.876 -149.3060
88.494946 90.870 -149.9659
89.136217 90.877 -150.6066
89.782135 90.900 -151.1897
90.432733 90.938 -151.6962
91.088046 90.982 -152.1441
91.748108 91.023 -152.5827
92.412952 91.052 -153.0613
93.082615 91.068 -153.6030
93.757130 91.074 -154.2008
94.436533 91.076 -154.8295
95.120859 91.078 -155.4566
95.810144 91.082 -156.0538
96.504423 91.085 -156.6099
97.203734 91.086 -157.1350
97.908112 91.085 -157.6509
98.617595 91.079 -158.1761
99.332219 91.070 -158.7129
100.052021 91.058 -159.2458
100.777039 91.044 -159.7565
101.507311 91.032 -160.2443
102.242875 91.024 -160.7276
102.983769 91.020 -161.2266
103.730032 91.020 -161.7478
104.481702 91.024 -162.2861
105.238820 91.028 -162.8367
106.001424 91.032 -163.4015
106.769554 91.034 -163.9799
107.543250 91.033 -164.5587
108.322553 91.030 -165.1176
109.107503 91.028 -165.6486
109.898141 91.025 -166.1605
110.694508 91.021 -166.6606
111.496646 91.015 -167.1415
112.304596 91.007 -167.5906
113.118402 90.997 -168.0055
113.938104 90.984 -168.3972
114.763747 90.968 -168.7876
115.595372 90.947 -169.2021
116.433024 90.922 -169.6566
117.276746 90.891 -170.1397
118.126581 90.856 -170.6147
118.982575 90.821 -171.0469
119.844772 90.788 -171.4218
120.713217 90.757 -171.7359
121.587954 90.725 -171.9928
122.469031 90.688 -172.2163
123.356492 90.643 -172.4523
124.250384 90.590 -172.7539
125.150753 90.538 -173.1676
126.057647 90.495 -173.7099
126.971113 90.465 -174.3426
127.891198 90.447 -174.9931
128.817950 90.435 -175.6088
129.751418 90.426 -176.1772
130.691651 90.419 -176.6999
131.638696 90.412 -177.1680
132.592604 90.403 -177.5635
133.553425 90.389 -177.8792
134.521208 90.368 -178.1336
135.496004 90.337 -178.3651
136.477864 90.296 -178.6096
137.466839 90.245 -178.8833
138.462981 90.187 -179.1842
139.466340 90.127 -179.5046
140.476971 90.069 -179.8429
141.494925 90.016 179.7914
142.520256 89.969 179.3767
143.553016 89.929 178.8947
144.593260 89.891 178.3612
145.641043 89.851 177.8256
146.696418 89.808 177.3289
147.759441 89.768 176.8832
148.830166 89.735 176.4846
149.908651 89.711 176.1218
150.994951 89.694 175.7775
152.089123 89.678 175.4388
153.191223 89.658 175.1095
154.301310 89.631 174.8059
155.419441 89.597 174.5375
156.545674 89.556 174.3006
157.680069 89.512 174.0901
158.822683 89.466 173.9039
159.973578 89.418 173.7346
161.132813 89.368 173.5645
162.300447 89.317 173.3721
163.476543 89.267 173.1448
164.661162 89.220 172.8865
165.854364 89.177 172.6134
167.056213 89.134 172.3408
168.266772 89.089 172.0777
169.486102 89.041 171.8270
170.714268 88.992 171.5845
171.951334 88.943 171.3431
173.197364 88.896 171.0958
174.452424 88.852 170.8359
175.716578 88.811 170.5601
176.989893 88.769 170.2693
178.272434 88.726 169.9689
179.564270 88.680 169.6714
180.865467 88.631 169.3961
182.176092 88.580 169.1581
183.496216 88.528 168.9612
184.825905 88.477 168.8005
186.165229 88.426 168.6688
187.514259 88.376 168.5547
188.873065 88.327 168.4461
190.241717 88.281 168.3359
191.620287 88.237 168.2224
193.008847 88.198 168.0997
194.407468 88.160 167.9590
195.816225 88.123 167.8044
197.235190 88.083 167.6555
198.664438 88.039 167.5332
200.104042 87.989 167.4527
201.554078 87.935 167.4205
203.014622 87.876 167.4259
204.485750 87.818 167.4429
205.967538 87.761 167.4476
207.460064 87.706 167.4338
208.963405 87.650 167.4114
210.477640 87.595 167.3910
212.002848 87.540 167.3742
213.539108 87.488 167.3513
215.086500 87.442 167.3045
216.645105 87.404 167.2217
218.215005 87.372 167.1070
219.796281 87.343 166.9757
221.389015 87.315 166.8442
222.993292 87.285 166.7247
224.609193 87.252 166.6243
226.236804 87.218 166.5459
227.876209 87.182 166.4876
229.527494 87.144 166.4451
231.190745 87.105 166.4135
232.866048 87.064 166.3881
234.553491 87.023 166.3665
236.253163 86.983 166.3510
237.965150 86.945 166.3476
239.689544 86.907 166.3582
241.426433 86.869 166.3801
243.175909 86.829 166.4120
244.938062 86.787 166.4539
246.712984 86.745 166.5011
248.500768 86.703 166.5349
250.301507 86.662 166.5255
252.115295 86.623 166.4562
253.942226 86.585 166.3438
255.782396 86.548 166.2252
257.635901 86.512 166.1289
259.502837 86.475 166.0638
261.383301 86.434 166.0275
263.277392 86.391 166.0156
265.185209 86.346 166.0251
267.106850 86.299 166.0518
269.042417 86.253 166.0891
270.992009 86.207 166.1283
272.955729 86.160 166.1656
274.933678 86.112 166.2070
276.925961 86.062 166.2566
278.932681 86.009 166.3056
280.953942 85.954 166.3348
282.989850 85.897 166.3289
285.040511 85.844 166.2912
287.106032 85.798 166.2496
289.186521 85.763 166.2416
291.282086 85.742 166.2928
293.392836 85.730 166.4077
295.518881 85.722 166.5738
297.660333 85.710 166.7688
299.817302 85.688 166.9702
301.989902 85.659 167.1649
304.178245 85.626 167.3499
306.382446 85.592 167.5220
308.602620 85.558 167.6753
310.838882 85.524 167.8170
313.091348 85.491 167.9599
315.360137 85.460 168.1053
317.645367 85.432 168.2462
319.947156 85.408 168.3711
322.265625 85.387 168.4670
324.600895 85.367 168.5239
326.953086 85.346 168.5394
329.322323 85.322 168.5162
331.708729 85.293 168.4615
334.112427 85.260 168.3878
336.533543 85.220 168.3087
338.972204 85.176 168.2385
341.428536 85.129 168.1926
343.902668 85.084 168.1766
346.394729 85.044 168.1854
348.904848 85.008 168.2142
351.433156 84.973 168.2688
353.979786 84.934 168.3609
356.544869 84.888 168.4998
359.128540 84.834 168.6936
361.730934 84.774 168.9523
364.352185 84.713 169.2842
366.992431 84.660 169.6826
369.651810 84.621 170.1143
372.330459 84.602 170.5357
375.028519 84.607 170.9121
377.746130 84.628 171.2220
380.483434 84.655 171.4527
383.240574 84.678 171.5983
386.017693 84.689 171.6655
388.814937 84.689 171.6701
391.632450 84.681 171.6311
394.470380 84.668 171.5675
397.328875 84.654 171.4938
400.208084 84.638 171.4185
403.108157 84.618 171.3454
406.029245 84.593 171.2816
408.971500 84.561 171.2371
411.935076 84.524 171.2132
414.920127 84.484 171.1973
417.926810 84.441 171.1766
420.955280 84.397 171.1478
424.005695 84.350 171.1136
427.078215 84.301 171.0865
430.173000 84.248 171.0879
433.290211 84.193 171.1396
436.430010 84.138 171.2563
439.592562 84.083 171.4404
442.778031 84.030 171.6731
445.986583 83.978 171.9233
449.218386 83.930 172.1649
452.473607 83.883 172.3914
455.752418 83.836 172.6193
459.054987 83.788 172.8787
462.381489 83.738 173.1848
465.732096 83.688 173.5197
469.106983 83.644 173.8453
472.506325 83.609 174.1390
475.930301 83.585 174.4107
479.379088 83.568 174.6810
482.852867 83.554 174.9509
486.351817 83.537 175.2007
489.876123 83.515 175.4127
493.425968 83.492 175.5949
497.001536 83.470 175.7857
500.603014 83.454 176.0236
504.230589 83.442 176.3181
507.884452 83.434 176.6463
511.564792 83.424 176.9706
515.271802 83.412 177.2654
519.005673 83.398 177.5305
522.766602 83.383 177.7809
526.554785 83.367 178.0308
530.370418 83.350 178.2867
534.213700 83.331 178.5484
538.084833 83.310 178.8106
541.984018 83.287 179.0661
545.911457 83.264 179.3133
549.867357 83.244 179.5577
553.851922 83.228 179.8088
557.865362 83.216 -179.9255
561.907884 83.208 -179.6411
565.979700 83.199 -179.3437
570.081022 83.189 -179.0503
574.212064 83.175 -178.7788
578.373042 83.160 -178.5326
582.564171 83.147 -178.2975
586.785671 83.137 -178.0587
591.037762 83.128 -177.8145
595.320665 83.117 -177.5728
599.634604 83.102 -177.3403
603.979804 83.084 -177.1148
608.356491 83.065 -176.8901
612.764893 83.047 -176.6651
617.205240 83.030 -176.4464
621.677763 83.013 -176.2398
626.182696 82.998 -176.0408
630.720274 82.986 -175.8365
635.290733 82.976 -175.6168
639.894312 82.968 -175.3807
644.531250 82.960 -175.1374
649.201789 82.953 -174.9032
653.906173 82.947 -174.6917
658.644647 82.940 -174.5018
663.417457 82.931 -174.3138
668.224854 82.920 -174.0995
673.067086 82.906 -173.8397
677.944408 82.892 -173.5410
682.857073 82.881 -173.2357
687.805336 82.873 -172.9586
692.789457 82.867 -172.7227
697.809695 82.861 -172.5115
702.866312 82.855 -172.2950
707.959571 82.846 -172.0502
713.089738 82.834 -171.7686
718.257080 82.819 -171.4578
723.461867 82.800 -171.1386
728.704370 82.782 -170.8369
733.984862 82.767 -170.5675
739.303619 82.758 -170.3271
744.660918 82.754 -170.1011
750.057038 82.752 -169.8712
755.492260 82.750 -169.6192
760.966869 82.744 -169.3378
766.481148 82.733 -169.0336
772.035387 82.718 -168.7209
777.629873 82.701 -168.4137
783.264900 82.681 -168.1168
788.940760 82.662 -167.8245
794.657750 82.644 -167.5341
800.416168 82.630 -167.2440
806.216313 82.619 -166.9441
812.058489 82.610 -166.6227
817.943000 82.603 -166.2802
823.870152 82.598 -165.9312
829.840255 82.595 -165.5916
835.853619 82.593 -165.2695
841.910559 82.592 -164.9665
848.011390 82.590 -164.6797
854.156430 82.583 -164.4021
860.346000 82.572 -164.1211
866.580422 82.558 -163.8234
872.860020 82.541 -163.5065
879.185124 82.526 -163.1779
885.556062 82.513 -162.8451
891.973166 82.504 -162.5097
898.436771 82.496 -162.1719
904.947215 82.490 -161.8316
911.504835 82.483 -161.4850
918.109975 82.474 -161.1294
924.762978 82.463 -160.7695
931.464192 82.451 -160.4152
938.213966 82.439 -160.0686
945.012651 82.424 -159.7209
951.860602 82.408 -159.3615
958.758176 82.391 -158.9863
965.705733 82.374 -158.5985
972.703635 82.360 -158.2072
979.752246 82.346 -157.8233
986.851935 82.333 -157.4529
994.003071 82.321 -157.0942
1001.206027 82.311 -156.7382
1008.461179 82.301 -156.3715
1015.768904 82.291 -155.9768
1023.129584 82.277 -155.5368
1030.543603 82.262 -155.0457
1038.011347 82.248 -154.5183
1045.533205 82.237 -153.9862
1053.109569 82.231 -153.4797
1060.740836 82.226 -153.0082
1068.427401 82.222 -152.5573
1076.169666 82.216 -152.1068
1083.968035 82.210 -151.6459
1091.822915 82.204 -151.1722
1099.734713 82.200 -150.6822
1107.703844 82.196 -150.1707
1115.730723 82.193 -149.6400
1123.815768 82.189 -149.0977
1131.959400 82.186 -148.5478
1140.162045 82.183 -147.9896
1148.424129 82.181 -147.4194
1156.746083 82.180 -146.8385
1165.128342 82.180 -146.2537
1173.571343 82.182 -145.6695
1182.075524 82.185 -145.0832
1190.641331 82.190 -144.4876
1199.269209 82.196 -143.8778
1207.959608 82.204 -143.2524
1216.712981 82.211 -142.6108
1225.529785 82.218 -141.9552
1234.410479 82.223 -141.2908
1243.355526 82.226 -140.6219
1252.365393 82.228 -139.9509
1261.440549 82.233 -139.2798
1270.581467 82.241 -138.6143
1279.788624 82.255 -137.9660
1289.062500 82.272 -137.3421
1298.403578 82.292 -136.7399
1307.812346 82.314 -136.1519
1317.289293 82.337 -135.5629
1326.834914 82.360 -134.9449
1336.449707 82.383 -134.2669
1346.134173 82.405 -133.5236
1355.888816 82.426 -132.7440
1365.714145 82.447 -131.9626
1375.610673 82.467 -131.1907
1385.578915 82.490 -130.4160
1395.619391 82.517 -129.6253
1405.732624 82.548 -128.8202
1415.919142 82.581 -128.0121
1426.179476 82.616 -127.2088
1436.514160 82.652 -126.4101
1446.923734 82.688 -125.6135
1457.408740 82.725 -124.8158
1467.969724 82.765 -124.0117
1478.607238 82.808 -123.1978
1489.321836 82.853 -122.3727
1500.114076 82.901 -121.5320
1510.984521 82.952 -120.6706
1521.933737 83.004 -119.7836
1532.962297 83.057 -118.8655
1544.070773 83.108 -117.9100
1555.259747 83.159 -116.9072
1566.529800 83.215 -115.8496
1577.881521 83.279 -114.7400
1589.315501 83.348 -113.5951
1600.832336 83.419 -112.4333
1612.432627 83.489 -111.2617
1624.116978 83.561 -110.0804
1635.886000 83.638 -108.8941
1647.740304 83.723 -107.7099
1659.680509 83.819 -106.5270
1671.707238 83.925 -105.3373
1683.821118 84.037 -104.1378
1696.022780 84.155 -102.9313
1708.312860 84.276 -101.7167
1720.692000 84.402 -100.4840
1733.160843 84.535 -99.2219
1745.720041 84.677 -97.9274
1758.370248 84.830 -96.6039
1771.112124 84.997 -95.2538
1783.946332 85.179 -93.8862
1796.873543 85.377 -92.5225
1809.894429 85.590 -91.1870
1823.009670 85.817 -89.8953
1836.219950 86.056 -88.6511
1849.525956 86.304 -87.4458
1862.928384 86.562 -86.2678
1876.427931 86.830 -85.1179
1890.025301 87.108 -84.0125
1903.721204 87.396 -82.9679
1917.516352 87.694 -81.9881
1931.411466 88.003 -81.0706
1945.407270 88.323 -80.2185
1959.504493 88.654 -79.4412
1973.703870 88.994 -78.7461
1988.006142 89.343 -78.1323
2002.412054 89.700 -77.5954
2016.922357 90.065 -77.1377
2031.537808 90.436 -76.7676
2046.259169 90.813 -76.4893
2061.087206 91.196 -76.3001
2076.022694 91.583 -76.1979
2091.066410 91.975 -76.1859
2106.219139 92.373 -76.2722
2121.481671 92.775 -76.4664
2136.854802 93.181 -76.7771
2152.339333 93.590 -77.2113
2167.936071 94.001 -77.7768
2183.645829 94.413 -78.4803
2199.469427 94.825 -79.3260
2215.407689 95.234 -80.3153
2231.461446 95.638 -81.4497
2247.631536 96.036 -82.7288
2263.918800 96.424 -84.1489
2280.324089 96.801 -85.7042
2296.848258 97.165 -87.3901
2313.492167 97.516 -89.2031
2330.256685 97.849 -91.1358
2347.142685 98.166 -93.1775
2364.151049 98.465 -95.3204
2381.282662 98.744 -97.5609
2398.538418 99.004 -99.8945
2415.919216 99.243 -102.3122
2433.425962 99.458 -104.8033
2451.059570 99.649 -107.3568
2468.820958 99.814 -109.9586
2486.711052 99.952 -112.5906
2504.730786 100.063 -115.2335
2522.881098 100.148 -117.8702
2541.162934 100.206 -120.4849
2559.577248 100.238 -123.0609
2578.125000 100.245 -125.5809
2596.807157 100.227 -128.0285
2615.624692 100.184 -130.3858
2634.578586 100.119 -132.6300
2653.669829 100.032 -134.7339
2672.899414 99.928 -136.6671
2692.268345 99.812 -138.3985
2711.777632 99.694 -139.9047
2731.428290 99.586 -141.1863
2751.221345 99.504 -142.2898
2771.157829 99.457 -143.3189
2791.238781 99.445 -144.4130
2811.465248 99.452 -145.6866
2831.838284 99.458 -147.1723
2852.358952 99.445 -148.8186
2873.028321 99.402 -150.5355
2893.847468 99.329 -152.2393
2914.817480 99.231 -153.8726
2935.939449 99.114 -155.4041
2957.214476 98.984 -156.8215
2978.643672 98.846 -158.1248
3000.228152 98.704 -159.3210
3021.969041 98.559 -160.4190
3043.867475 98.415 -161.4275
3065.924593 98.272 -162.3557
3088.141547 98.130 -163.2124
3110.519493 97.992 -164.0050
3133.059600 97.856 -164.7406
3155.763041 97.723 -165.4264
3178.631001 97.593 -166.0679
3201.664672 97.465 -166.6689
3224.865254 97.341 -167.2319
3248.233957 97.220 -167.7590
3271.771999 97.102 -168.2529
3295.480608 96.986 -168.7181
3319.361019 96.874 -169.1593
3343.414477 96.765 -169.5813
3367.642236 96.658 -169.9886
3392.045560 96.553 -170.3821
3416.625721 96.448 -170.7599
3441.383999 96.344 -171.1187
3466.321686 96.241 -171.4548
3491.440082 96.138 -171.7663
3516.740496 96.037 -172.0536
3542.224247 95.937 -172.3197
3567.892664 95.840 -172.5688
3593.747085 95.744 -172.8058
3619.788858 95.651 -173.0346
3646.019340 95.559 -173.2586
3672.439900 95.468 -173.4794
3699.051913 95.378 -173.6973
3725.856768 95.288 -173.9130
3752.855862 95.197 -174.1282
3780.050603 95.105 -174.3445
3807.442408 95.010 -174.5617
3835.032705 94.911 -174.7764
3862.822933 94.807 -174.9810
3890.814540 94.698 -175.1635
3919.008986 94.581 -175.3077
3947.407741 94.457 -175.3952
3976.012284 94.328 -175.4063
4004.824108 94.194 -175.3230
4033.844715 94.060 -175.1316
4063.075616 93.930 -174.8273
4092.518337 93.809 -174.4165
4122.174412 93.700 -173.9173
4152.045387 93.607 -173.3574
4182.132820 93.531 -172.7680
4212.438278 93.471 -172.1782
4242.963342 93.425 -171.6108
4273.709604 93.390 -171.0803
4304.678665 93.363 -170.5929
4335.872141 93.343 -170.1479
4367.291658 93.326 -169.7392
4398.938854 93.311 -169.3586
4430.815378 93.298 -168.9977
4462.922893 93.286 -168.6501
4495.263072 93.277 -168.3119
4527.837601 93.270 -167.9813
4560.648179 93.267 -167.6595
4593.696515 93.267 -167.3497
4626.984334 93.270 -167.0568
4660.513370 93.276 -166.7850
4694.285371 93.285 -166.5370
4728.302098 93.294 -166.3135
4762.565324 93.304 -166.1135
4797.076835 93.314 -165.9343
4831.838432 93.322 -165.7716
4866.851925 93.328 -165.6195
4902.119140 93.332 -165.4716
4937.641916 93.335 -165.3219
4973.422105 93.336 -165.1644
5009.461572 93.336 -164.9940
5045.762195 93.337 -164.8076
5082.325868 93.338 -164.6044
5119.154496 93.341 -164.3845
5156.250000 93.346 -164.1483
5193.614313 93.353 -163.8954
5231.249383 93.364 -163.6254
5269.157173 93.378 -163.3386
5307.339658 93.396 -163.0363
5345.798829 93.419 -162.7208
5384.536691 93.446 -162.3953
5423.555263 93.479 -162.0632
5462.856580 93.518 -161.7278
5502.442691 93.563 -161.3917
5542.315659 93.614 -161.0581
5582.477563 93.673 -160.7303
5622.930497 93.738 -160.4120
5663.676569 93.811 -160.1078
5704.717904 93.893 -159.8232
5746.056642 93.981 -159.5648
5787.694937 94.078 -159.3401
5829.634960 94.181 -159.1557
5871.878898 94.291 -159.0170
5914.428953 94.407 -158.9288
5957.287343 94.528 -158.8952
6000.456303 94.654 -158.9195
6043.938083 94.784 -159.0058
6087.734950 94.918 -159.1585
6131.849187 95.055 -159.3816
6176.283094 95.193 -159.6791
6221.038987 95.333 -160.0546
6266.119200 95.474 -160.5121
6311.526083 95.614 -161.0553
6357.262002 95.751 -161.6874
6403.329344 95.885 -162.4109
6449.730508 96.012 -163.2272
6496.467914 96.132 -164.1354
6543.543998 96.242 -165.1306
6590.961215 96.338 -166.2032
6638.722037 96.418 -167.3371
6686.828954 96.481 -168.5089
6735.284473 96.524 -169.6888
6784.091120 96.549 -170.8441
6833.251441 96.558 -171.9422
6882.767998 96.557 -172.9562
6932.643372 96.552 -173.8707
6982.880164 96.551 -174.6894
7033.480992 96.561 -175.4386
7084.448495 96.586 -176.1654
7135.785329 96.629 -176.9282
7187.494171 96.686 -177.7813
7239.577717 96.749 -178.7618
7292.038681 96.811 -179.8826
7344.879799 96.865 178.8655
7398.103826 96.905 177.5050
7451.713536 96.929 176.0639
7505.711724 96.935 174.5692
7560.101205 96.923 173.0445
7614.884815 96.893 171.5105
7670.065409 96.845 169.9863
7725.645865 96.782 168.4910
7781.629080 96.704 167.0420
7838.017972 96.615 165.6529
7894.815481 96.519 164.3301
7952.024569 96.420 163.0704
8009.648217 96.322 161.8613
8067.689429 96.228 160.6827
8126.151233 96.139 159.5114
8185.036674 96.055 158.3250
8244.348824 95.975 157.1048
8304.090774 95.898 155.8361
8364.265639 95.824 154.5068
8424.876556 95.751 153.1051
8485.926684 95.678 151.6172
8547.419207 95.605 150.0266
8609.357330 95.527 148.3149
8671.744282 95.443 146.4646
8734.583316 95.348 144.4624
8797.877707 95.237 142.3021
8861.630756 95.104 139.9860
8925.845785 94.942 137.5246
8990.526143 94.746 134.9368
9055.675202 94.511 132.2483
9121.296357 94.232 129.4901
9187.393031 93.905 126.6972
9253.968668 93.528 123.9056
9321.026740 93.101 121.1498
9388.570742 92.623 118.4602
9456.604196 92.093 115.8618
9525.130648 91.511 113.3746
9594.153671 90.878 111.0152
9663.676863 90.190 108.8002
9733.703850 89.443 106.7540
9804.238280 88.631 104.9212
9875.283832 87.745 103.3852
9946.844210 86.774 102.2905
10018.923143 85.712 101.8720
10091.524390 84.555 102.4842
10164.651736 83.314 104.6225
10238.308993 82.026 108.8980
10312.500000 80.759 115.8763
10387.228626 79.616 125.6554
10462.498767 78.716 137.3365
10538.314345 78.138 149.1725
10614.679315 77.885 159.6654
10691.597657 77.892 168.2891
10769.073381 78.071 175.2133
10847.110526 78.347 -179.2001
10925.713161 78.668 -174.6485
11004.885382 79.000 -170.9282
11084.631318 79.316 -167.8915
11164.955126 79.597 -165.3978
11245.860993 79.828 -163.2846
11327.353138 80.000 -161.3625
11409.435808 80.115 -159.4253
11492.113283 80.183 -157.2687
11575.389873 80.221 -154.7132
11659.269920 80.258 -151.6259
11743.757796 80.327 -147.9388
11828.857906 80.462 -143.6651
11914.574686 80.696 -138.9077
12000.912606 81.053 -133.8528
12087.876166 81.547 -128.7413
12175.469900 82.179 -123.8291
12263.698373 82.941 -119.3498
12352.566187 83.817 -115.4916
12442.077974 84.786 -112.3925
12532.238400 85.828 -110.1504
12623.052165 86.921 -108.8363
12714.524005 88.043 -108.5027
12806.658687 89.171 -109.1862
12899.461015 90.281 -110.9056
12992.935827 91.347 -113.6560
13087.087996 92.346 -117.4041
13181.922430 93.253 -122.0847
13277.444074 94.049 -127.6005
13373.657907 94.717 -133.8252
13470.568945 95.246 -140.6114
13568.182241 95.631 -147.8033
13666.502883 95.873 -155.2505
13765.535996 95.974 -162.8188
13865.286744 95.939 -170.3941
13965.760328 95.775 -177.8792
14066.961984 95.486 174.8133
14168.896989 95.076 167.7695
14271.570658 94.548 161.0799
14374.988342 93.909 154.8390
14479.155433 93.165 149.1406
14584.077362 92.326 144.0706
14689.759598 91.407 139.6992
14796.207652 90.423 136.0764
14903.427072 89.391 133.2294
15011.423448 88.330 131.1632
15120.202410 87.257 129.8610
15229.769630 86.190 129.2868
15340.130819 85.143 129.3898
15451.291730 84.129 130.1069
15563.258160 83.159 131.3652
15676.035944 82.240 133.0886
15789.630962 81.374 135.2087
15904.049137 80.565 137.6721
16019.296433 79.812 140.4386
16135.378859 79.114 143.4714
16252.302465 78.472 146.7315
16370.073348 77.885 150.1784
16488.697648 77.352 153.7717
16608.181548 76.873 157.4737
16728.531278 76.445 161.2537
16849.753112 76.067 165.0875
16971.853368 75.738 168.9535
17094.838414 75.456 172.8316
17218.714660 75.222 176.7032
17343.488565 75.037 -179.4539
17469.166632 74.905 -175.6725
17595.755415 74.828 -171.9987
17723.261512 74.808 -168.4958
17851.691571 74.844 -165.2456
17981.052287 74.930 -162.3467
18111.350404 75.060 -159.9097
18242.592715 75.221 -158.0482
18374.786062 75.395 -156.8628
18507.937336 75.557 -156.4213
18642.053479 75.678 -156.7404
18777.141484 75.725 -157.7708
18913.208391 75.667 -159.3869
19050.261296 75.474 -161.3884
19188.307342 75.128 -163.5148
19327.353727 74.626 -165.4816
19467.407699 73.988 -167.0328
19608.476560 73.261 -168.0055
19750.567664 72.529 -168.3869
19893.688419 71.914 -168.3445
20037.846286 71.557 -168.1870
