* Measurement data measured by REW V5.31.3
* Source: Микрофон (HiBy Digital D1), MICROPHONE (Общая громкость), L, volume: 0,640
* Format: 256k Log Swept Sine, 1 sweep at -20,0 dBFS with no timing reference
* Dated: 07.07.2025 19:48:01
* REW Settings:
*  C-weighting compensation: Off
*  Target level: 75.0 dB
* Note: 
* Measurement: R_BE130
* Smoothing: 1/12 octave
* Frequency Step: 96 ppo
* Start Frequency: 20.141602 Hz
*
* Freq(Hz) SPL(dB) Phase(degrees)
20.141602 71.703 -82.9979
20.287556 71.696 -83.1506
20.434568 71.686 -83.3822
20.582645 71.676 -83.6785
20.731796 71.669 -84.0275
20.882027 71.670 -84.4208
21.033346 71.680 -84.8524
21.185763 71.705 -85.3177
21.339284 71.746 -85.8108
21.493917 71.804 -86.3228
21.649671 71.878 -86.8403
21.806553 71.965 -87.3454
21.964572 72.064 -87.8161
22.123737 72.170 -88.2283
22.284054 72.279 -88.5579
22.445534 72.391 -88.7845
22.608183 72.501 -88.8944
22.772012 72.609 -88.8834
22.937027 72.715 -88.7591
23.103238 72.817 -88.5414
23.270654 72.917 -88.2618
23.439282 73.013 -87.9609
23.609133 73.104 -87.6839
23.780215 73.188 -87.4748
23.952536 73.261 -87.3720
24.126106 73.323 -87.4026
24.300934 73.370 -87.5805
24.477028 73.402 -87.9043
24.654399 73.419 -88.3584
24.833055 73.425 -88.9150
25.013005 73.423 -89.5374
25.194260 73.421 -90.1846
25.376828 73.426 -90.8158
25.560719 73.444 -91.3956
25.745942 73.482 -91.8975
25.932508 73.542 -92.3056
26.120426 73.625 -92.6148
26.309705 73.727 -92.8274
26.500356 73.842 -92.9497
26.692388 73.963 -92.9883
26.885812 74.082 -92.9475
27.080638 74.193 -92.8298
27.276876 74.290 -92.6378
27.474535 74.373 -92.3777
27.673627 74.442 -92.0630
27.874161 74.500 -91.7172
28.076149 74.550 -91.3738
28.279600 74.596 -91.0732
28.484526 74.641 -90.8564
28.690937 74.686 -90.7569
28.898843 74.733 -90.7932
29.108256 74.781 -90.9642
29.319186 74.828 -91.2485
29.531645 74.877 -91.6086
29.745644 74.929 -91.9996
29.961193 74.987 -92.3791
30.178304 75.055 -92.7174
30.396989 75.135 -93.0047
30.617258 75.230 -93.2530
30.839123 75.338 -93.4917
31.062596 75.454 -93.7588
31.287688 75.571 -94.0894
31.514412 75.681 -94.5055
31.742778 75.778 -95.0107
31.972800 75.856 -95.5892
32.204488 75.913 -96.2101
32.437855 75.952 -96.8334
32.672913 75.978 -97.4192
32.909674 75.998 -97.9344
33.148151 76.021 -98.3589
33.388356 76.054 -98.6873
33.630302 76.101 -98.9276
33.874001 76.164 -99.0967
34.119466 76.242 -99.2146
34.366710 76.330 -99.2998
34.615745 76.425 -99.3666
34.866585 76.520 -99.4256
35.119243 76.613 -99.4849
35.373731 76.702 -99.5519
35.630064 76.785 -99.6338
35.888254 76.860 -99.7370
36.148315 76.930 -99.8658
36.410261 76.993 -100.0215
36.674104 77.052 -100.2022
36.939860 77.107 -100.4034
37.207542 77.160 -100.6205
37.477163 77.212 -100.8493
37.748738 77.264 -101.0874
38.022281 77.316 -101.3332
38.297806 77.367 -101.5841
38.575327 77.415 -101.8353
38.854860 77.462 -102.0793
39.136419 77.506 -102.3069
39.420017 77.549 -102.5102
39.705671 77.594 -102.6864
39.993395 77.644 -102.8412
40.283203 77.701 -102.9899
40.575112 77.767 -103.1549
40.869136 77.841 -103.3595
41.165290 77.921 -103.6198
41.463591 78.004 -103.9370
41.764053 78.084 -104.2949
42.066693 78.160 -104.6628
42.371525 78.232 -105.0054
42.678567 78.303 -105.2949
42.987834 78.376 -105.5231
43.299341 78.454 -105.7046
43.613106 78.537 -105.8723
43.929145 78.622 -106.0645
44.247473 78.706 -106.3094
44.568109 78.784 -106.6153
44.891068 78.853 -106.9697
45.216367 78.916 -107.3465
45.544023 78.977 -107.7152
45.874054 79.041 -108.0490
46.206476 79.114 -108.3281
46.541307 79.199 -108.5422
46.878565 79.298 -108.6923
47.218266 79.409 -108.7956
47.560429 79.528 -108.8891
47.905072 79.647 -109.0245
48.252212 79.756 -109.2528
48.601867 79.844 -109.6032
48.954056 79.901 -110.0662
49.308798 79.923 -110.5920
49.666109 79.915 -111.1064
50.026010 79.889 -111.5392
50.388520 79.867 -111.8537
50.753656 79.865 -112.0637
51.121437 79.896 -112.2261
51.491884 79.961 -112.4132
51.865016 80.051 -112.6795
52.240851 80.155 -113.0423
52.619410 80.261 -113.4835
53.000712 80.361 -113.9649
53.384777 80.452 -114.4478
53.771625 80.533 -114.9065
54.161276 80.607 -115.3340
54.553751 80.673 -115.7386
54.949070 80.731 -116.1350
55.347254 80.781 -116.5356
55.748323 80.825 -116.9437
56.152298 80.864 -117.3543
56.559201 80.903 -117.7577
56.969052 80.947 -118.1431
57.381873 81.000 -118.5006
57.797686 81.062 -118.8206
58.216512 81.132 -119.0968
58.638373 81.208 -119.3319
59.063291 81.287 -119.5433
59.491288 81.367 -119.7613
59.922386 81.443 -120.0179
60.356608 81.514 -120.3332
60.793977 81.578 -120.7074
61.234515 81.636 -121.1242
61.678246 81.691 -121.5621
62.125192 81.748 -122.0056
62.575377 81.806 -122.4484
63.028824 81.866 -122.8899
63.485557 81.925 -123.3283
63.945599 81.981 -123.7574
64.408975 82.034 -124.1702
64.875709 82.086 -124.5658
65.345825 82.141 -124.9550
65.819348 82.199 -125.3581
66.296302 82.262 -125.7946
66.776713 82.326 -126.2704
67.260604 82.388 -126.7733
67.748002 82.449 -127.2791
68.238932 82.509 -127.7666
68.733420 82.570 -128.2290
69.231490 82.632 -128.6753
69.733170 82.693 -129.1226
70.238485 82.753 -129.5856
70.747463 82.810 -130.0714
71.260128 82.863 -130.5799
71.776508 82.913 -131.1063
72.296630 82.959 -131.6432
72.820521 83.003 -132.1827
73.348209 83.044 -132.7190
73.879720 83.084 -133.2510
74.415083 83.122 -133.7812
74.954326 83.160 -134.3116
75.497475 83.199 -134.8394
76.044561 83.239 -135.3583
76.595612 83.280 -135.8631
77.150655 83.322 -136.3527
77.709720 83.361 -136.8290
78.272837 83.398 -137.2961
78.840034 83.434 -137.7618
79.411342 83.470 -138.2367
79.986789 83.507 -138.7304
80.566406 83.547 -139.2460
81.150224 83.588 -139.7795
81.738272 83.628 -140.3236
82.330581 83.665 -140.8732
82.927182 83.698 -141.4267
83.528107 83.726 -141.9851
84.133386 83.751 -142.5506
84.743051 83.772 -143.1243
85.357134 83.790 -143.7059
85.975667 83.807 -144.2944
86.598682 83.825 -144.8933
87.226212 83.845 -145.5124
87.858289 83.869 -146.1645
88.494946 83.895 -146.8516
89.136217 83.922 -147.5519
89.782135 83.950 -148.2244
90.432733 83.981 -148.8323
91.088046 84.014 -149.3654
91.748108 84.047 -149.8400
92.412952 84.075 -150.2813
93.082615 84.096 -150.7098
93.757130 84.110 -151.1406
94.436533 84.119 -151.5870
95.120859 84.127 -152.0583
95.810144 84.138 -152.5573
96.504423 84.154 -153.0798
97.203734 84.173 -153.6160
97.908112 84.196 -154.1552
98.617595 84.219 -154.6938
99.332219 84.240 -155.2370
100.052021 84.255 -155.7928
100.777039 84.261 -156.3638
101.507311 84.259 -156.9457
102.242875 84.252 -157.5289
102.983769 84.244 -158.1018
103.730032 84.237 -158.6577
104.481702 84.231 -159.2038
105.238820 84.226 -159.7621
106.001424 84.220 -160.3559
106.769554 84.213 -160.9861
107.543250 84.205 -161.6216
108.322553 84.198 -162.2199
109.107503 84.188 -162.7629
109.898141 84.171 -163.2678
110.694508 84.148 -163.7661
111.496646 84.122 -164.2750
112.304596 84.097 -164.7925
113.118402 84.077 -165.3099
113.938104 84.061 -165.8246
114.763747 84.045 -166.3409
115.595372 84.028 -166.8647
116.433024 84.010 -167.3978
117.276746 83.992 -167.9383
118.126581 83.976 -168.4828
118.982575 83.964 -169.0215
119.844772 83.956 -169.5375
120.713217 83.951 -170.0191
121.587954 83.947 -170.4727
122.469031 83.940 -170.9222
123.356492 83.931 -171.3937
124.250384 83.917 -171.8936
125.150753 83.901 -172.4012
126.057647 83.881 -172.8872
126.971113 83.858 -173.3396
127.891198 83.830 -173.7685
128.817950 83.798 -174.1931
129.751418 83.763 -174.6272
130.691651 83.726 -175.0725
131.638696 83.687 -175.5214
132.592604 83.650 -175.9637
133.553425 83.617 -176.3930
134.521208 83.586 -176.8091
135.496004 83.557 -177.2171
136.477864 83.526 -177.6238
137.466839 83.494 -178.0319
138.462981 83.460 -178.4393
139.466340 83.425 -178.8405
140.476971 83.390 -179.2270
141.494925 83.354 -179.5924
142.520256 83.318 -179.9373
143.553016 83.280 179.7303
144.593260 83.243 179.4025
145.641043 83.204 179.0742
146.696418 83.163 178.7412
147.759441 83.118 178.4011
148.830166 83.072 178.0560
149.908651 83.028 177.7106
150.994951 82.991 177.3629
152.089123 82.959 177.0080
153.191223 82.930 176.6502
154.301310 82.899 176.2969
155.419441 82.866 175.9510
156.545674 82.829 175.6169
157.680069 82.791 175.3015
158.822683 82.750 175.0058
159.973578 82.704 174.7205
161.132813 82.655 174.4325
162.300447 82.605 174.1342
163.476543 82.555 173.8264
164.661162 82.508 173.5152
165.854364 82.463 173.2092
167.056213 82.421 172.9167
168.266772 82.380 172.6426
169.486102 82.337 172.3857
170.714268 82.292 172.1401
171.951334 82.245 171.8997
173.197364 82.196 171.6606
174.452424 82.146 171.4223
175.716578 82.097 171.1847
176.989893 82.048 170.9478
178.272434 81.999 170.7162
179.564270 81.954 170.4970
180.865467 81.912 170.2938
182.176092 81.875 170.1032
183.496216 81.839 169.9183
184.825905 81.802 169.7344
186.165229 81.762 169.5522
187.514259 81.719 169.3747
188.873065 81.674 169.2048
190.241717 81.629 169.0438
191.620287 81.584 168.8911
193.008847 81.540 168.7458
194.407468 81.497 168.6079
195.816225 81.454 168.4765
197.235190 81.411 168.3479
198.664438 81.367 168.2151
200.104042 81.321 168.0721
201.554078 81.273 167.9190
203.014622 81.222 167.7615
204.485750 81.171 167.6037
205.967538 81.120 167.4475
207.460064 81.070 167.2955
208.963405 81.022 167.1504
210.477640 80.974 167.0145
212.002848 80.924 166.8888
213.539108 80.873 166.7694
215.086500 80.823 166.6480
216.645105 80.773 166.5209
218.215005 80.726 166.3956
219.796281 80.681 166.2848
221.389015 80.637 166.1947
222.993292 80.592 166.1187
224.609193 80.547 166.0410
226.236804 80.501 165.9457
227.876209 80.455 165.8256
229.527494 80.410 165.6831
231.190745 80.363 165.5273
232.866048 80.314 165.3711
234.553491 80.261 165.2290
236.253163 80.204 165.1151
237.965150 80.143 165.0384
239.689544 80.081 165.0015
241.426433 80.019 165.0045
243.175909 79.960 165.0425
244.938062 79.903 165.1011
246.712984 79.848 165.1569
248.500768 79.794 165.1909
250.301507 79.740 165.1982
252.115295 79.688 165.1899
253.942226 79.639 165.1855
255.782396 79.594 165.1982
257.635901 79.551 165.2224
259.502837 79.510 165.2416
261.383301 79.469 165.2441
263.277392 79.425 165.2318
265.185209 79.379 165.2113
267.106850 79.334 165.1782
269.042417 79.289 165.1162
270.992009 79.246 165.0148
272.955729 79.204 164.8828
274.933678 79.157 164.7447
276.925961 79.105 164.6284
278.932681 79.045 164.5565
280.953942 78.979 164.5442
282.989850 78.905 164.5949
285.040511 78.826 164.7045
287.106032 78.745 164.8689
289.186521 78.666 165.0853
291.282086 78.591 165.3516
293.392836 78.523 165.6669
295.518881 78.463 166.0321
297.660333 78.412 166.4431
299.817302 78.373 166.8864
301.989902 78.351 167.3380
304.178245 78.348 167.7650
306.382446 78.365 168.1206
308.602620 78.399 168.3436
310.838882 78.443 168.3721
313.091348 78.488 168.1650
315.360137 78.522 167.7183
317.645367 78.535 167.0706
319.947156 78.515 166.3011
322.265625 78.455 165.5206
324.600895 78.355 164.8525
326.953086 78.224 164.3983
329.322323 78.077 164.2091
331.708729 77.931 164.2794
334.112427 77.798 164.5625
336.533543 77.684 164.9930
338.972204 77.590 165.5096
341.428536 77.513 166.0661
343.902668 77.450 166.6266
346.394729 77.398 167.1617
348.904848 77.354 167.6600
351.433156 77.315 168.1231
353.979786 77.278 168.5524
356.544869 77.245 168.9496
359.128540 77.214 169.3198
361.730934 77.184 169.6739
364.352185 77.155 170.0209
366.992431 77.128 170.3575
369.651810 77.100 170.6689
372.330459 77.071 170.9408
375.028519 77.038 171.1710
377.746130 77.003 171.3698
380.483434 76.967 171.5499
383.240574 76.930 171.7222
386.017693 76.894 171.8974
388.814937 76.856 172.0844
391.632450 76.817 172.2873
394.470380 76.774 172.5043
397.328875 76.729 172.7310
400.208084 76.684 172.9647
403.108157 76.644 173.2036
406.029245 76.614 173.4440
408.971500 76.593 173.6802
411.935076 76.581 173.9044
414.920127 76.570 174.1142
417.926810 76.557 174.3138
420.955280 76.538 174.5109
424.005695 76.514 174.7175
427.078215 76.488 174.9462
430.173000 76.462 175.1975
433.290211 76.441 175.4534
436.430010 76.426 175.6880
439.592562 76.418 175.8888
442.778031 76.415 176.0603
445.986583 76.409 176.2252
449.218386 76.390 176.4308
452.473607 76.352 176.7113
455.752418 76.299 177.0438
459.054987 76.238 177.3809
462.381489 76.177 177.6955
465.732096 76.120 177.9860
469.106983 76.069 178.2631
472.506325 76.024 178.5352
475.930301 75.986 178.8012
479.379088 75.951 179.0592
482.852867 75.919 179.3132
486.351817 75.888 179.5696
489.876123 75.858 179.8356
493.425968 75.826 -179.8825
497.001536 75.795 -179.5875
500.603014 75.765 -179.2923
504.230589 75.737 -179.0058
507.884452 75.711 -178.7251
511.564792 75.685 -178.4408
515.271802 75.660 -178.1458
519.005673 75.635 -177.8372
522.766602 75.608 -177.5175
526.554785 75.582 -177.1954
530.370418 75.555 -176.8868
534.213700 75.527 -176.6103
538.084833 75.501 -176.3767
541.984018 75.476 -176.1808
545.911457 75.455 -175.9966
549.867357 75.438 -175.7763
553.851922 75.422 -175.4753
557.865362 75.400 -175.0847
561.907884 75.368 -174.6325
565.979700 75.328 -174.1612
570.081022 75.285 -173.7036
574.212064 75.247 -173.2719
578.373042 75.216 -172.8612
582.564171 75.194 -172.4623
586.785671 75.178 -172.0705
591.037762 75.164 -171.6812
595.320665 75.148 -171.2875
599.634604 75.126 -170.8887
603.979804 75.098 -170.4982
608.356491 75.066 -170.1299
612.764893 75.032 -169.7871
617.205240 75.000 -169.4630
621.677763 74.972 -169.1399
626.182696 74.947 -168.7944
630.720274 74.925 -168.4046
635.290733 74.903 -167.9666
639.894312 74.878 -167.4984
644.531250 74.848 -167.0265
649.201789 74.815 -166.5789
653.906173 74.784 -166.1792
658.644647 74.756 -165.8357
663.417457 74.733 -165.5397
668.224854 74.712 -165.2730
673.067086 74.693 -165.0088
677.944408 74.673 -164.7128
682.857073 74.652 -164.3623
687.805336 74.632 -163.9562
692.789457 74.613 -163.5048
697.809695 74.592 -163.0223
702.866312 74.567 -162.5319
707.959571 74.539 -162.0608
713.089738 74.511 -161.6221
718.257080 74.485 -161.2114
723.461867 74.463 -160.8205
728.704370 74.444 -160.4436
733.984862 74.425 -160.0745
739.303619 74.405 -159.7083
744.660918 74.386 -159.3379
750.057038 74.369 -158.9557
755.492260 74.355 -158.5656
760.966869 74.344 -158.1817
766.481148 74.335 -157.8114
772.035387 74.327 -157.4485
777.629873 74.316 -157.0811
783.264900 74.296 -156.7000
788.940760 74.270 -156.3033
794.657750 74.241 -155.8903
800.416168 74.214 -155.4583
806.216313 74.193 -155.0073
812.058489 74.179 -154.5351
817.943000 74.167 -154.0323
823.870152 74.157 -153.4931
829.840255 74.145 -152.9256
835.853619 74.133 -152.3493
841.910559 74.119 -151.8014
848.011390 74.105 -151.3314
854.156430 74.090 -150.9762
860.346000 74.073 -150.7416
866.580422 74.056 -150.5977
872.860020 74.039 -150.4776
879.185124 74.025 -150.2894
885.556062 74.017 -149.9462
891.973166 74.013 -149.4069
898.436771 74.009 -148.7036
904.947215 73.998 -147.9265
911.504835 73.975 -147.1773
918.109975 73.940 -146.5106
924.762978 73.898 -145.9056
931.464192 73.854 -145.2990
938.213966 73.813 -144.6473
945.012651 73.777 -143.9549
951.860602 73.750 -143.2584
958.758176 73.729 -142.5969
965.705733 73.713 -141.9898
972.703635 73.698 -141.4314
979.752246 73.680 -140.8983
986.851935 73.655 -140.3589
994.003071 73.621 -139.7867
1001.206027 73.580 -139.1783
1008.461179 73.539 -138.5507
1015.768904 73.502 -137.9285
1023.129584 73.473 -137.3330
1030.543603 73.451 -136.7663
1038.011347 73.430 -136.2101
1045.533205 73.411 -135.6455
1053.109569 73.393 -135.0534
1060.740836 73.377 -134.4056
1068.427401 73.360 -133.6872
1076.169666 73.342 -132.9191
1083.968035 73.322 -132.1402
1091.822915 73.298 -131.3821
1099.734713 73.271 -130.6546
1107.703844 73.244 -129.9397
1115.730723 73.217 -129.2066
1123.815768 73.191 -128.4385
1131.959400 73.167 -127.6389
1140.162045 73.144 -126.8278
1148.424129 73.124 -126.0351
1156.746083 73.106 -125.2747
1165.128342 73.091 -124.5205
1173.571343 73.077 -123.7355
1182.075524 73.064 -122.9117
1190.641331 73.051 -122.0657
1199.269209 73.041 -121.2085
1207.959608 73.033 -120.3327
1216.712981 73.031 -119.4211
1225.529785 73.035 -118.4638
1234.410479 73.041 -117.4712
1243.355526 73.046 -116.4753
1252.365393 73.045 -115.5109
1261.440549 73.036 -114.5888
1270.581467 73.024 -113.6867
1279.788624 73.013 -112.7706
1289.062500 73.004 -111.8203
1298.403578 72.997 -110.8370
1307.812346 72.992 -109.8280
1317.289293 72.987 -108.7965
1326.834914 72.984 -107.7454
1336.449707 72.986 -106.6838
1346.134173 72.993 -105.6278
1355.888816 73.005 -104.5902
1365.714145 73.019 -103.5673
1375.610673 73.033 -102.5441
1385.578915 73.043 -101.5070
1395.619391 73.048 -100.4482
1405.732624 73.049 -99.3618
1415.919142 73.047 -98.2381
1426.179476 73.046 -97.0692
1436.514160 73.049 -95.8637
1446.923734 73.057 -94.6447
1457.408740 73.069 -93.4263
1467.969724 73.083 -92.2001
1478.607238 73.096 -90.9430
1489.321836 73.109 -89.6327
1500.114076 73.125 -88.2657
1510.984521 73.145 -86.8582
1521.933737 73.169 -85.4344
1532.962297 73.200 -84.0160
1544.070773 73.235 -82.6106
1555.259747 73.272 -81.2085
1566.529800 73.311 -79.7896
1577.881521 73.352 -78.3309
1589.315501 73.396 -76.8217
1600.832336 73.445 -75.2692
1612.432627 73.501 -73.6842
1624.116978 73.561 -72.0641
1635.886000 73.627 -70.3939
1647.740304 73.700 -68.6616
1659.680509 73.782 -66.8676
1671.707238 73.874 -65.0282
1683.821118 73.976 -63.1689
1696.022780 74.085 -61.3023
1708.312860 74.202 -59.4177
1720.692000 74.327 -57.4977
1733.160843 74.462 -55.5378
1745.720041 74.610 -53.5513
1758.370248 74.771 -51.5581
1771.112124 74.947 -49.5658
1783.946332 75.138 -47.5673
1796.873543 75.347 -45.5567
1809.894429 75.576 -43.5451
1823.009670 75.824 -41.5580
1836.219950 76.089 -39.6156
1849.525956 76.367 -37.7222
1862.928384 76.657 -35.8786
1876.427931 76.959 -34.0929
1890.025301 77.274 -32.3813
1903.721204 77.600 -30.7645
1917.516352 77.935 -29.2582
1931.411466 78.279 -27.8586
1945.407270 78.632 -26.5454
1959.504493 78.996 -25.3088
1973.703870 79.371 -24.1572
1988.006142 79.755 -23.0961
2002.412054 80.147 -22.1158
2016.922357 80.547 -21.2058
2031.537808 80.956 -20.3771
2046.259169 81.373 -19.6539
2061.087206 81.796 -19.0486
2076.022694 82.222 -18.5555
2091.066410 82.650 -18.1669
2106.219139 83.080 -17.8843
2121.481671 83.514 -17.7114
2136.854802 83.950 -17.6487
2152.339333 84.388 -17.7000
2167.936071 84.830 -17.8742
2183.645829 85.272 -18.1832
2199.469427 85.715 -18.6352
2215.407689 86.156 -19.2315
2231.461446 86.593 -19.9706
2247.631536 87.026 -20.8573
2263.918800 87.453 -21.9009
2280.324089 87.870 -23.1074
2296.848258 88.275 -24.4759
2313.492167 88.666 -26.0020
2330.256685 89.041 -27.6787
2347.142685 89.396 -29.4952
2364.151049 89.731 -31.4381
2381.282662 90.044 -33.4945
2398.538418 90.334 -35.6538
2415.919216 90.599 -37.9051
2433.425962 90.836 -40.2360
2451.059570 91.047 -42.6339
2468.820958 91.229 -45.0844
2486.711052 91.383 -47.5706
2504.730786 91.507 -50.0726
2522.881098 91.602 -52.5697
2541.162934 91.669 -55.0432
2559.577248 91.707 -57.4763
2578.125000 91.720 -59.8526
2596.807157 91.707 -62.1574
2615.624692 91.673 -64.3795
2634.578586 91.618 -66.5100
2653.669829 91.544 -68.5416
2672.899414 91.454 -70.4694
2692.268345 91.350 -72.2903
2711.777632 91.232 -74.0025
2731.428290 91.104 -75.6049
2751.221345 90.967 -77.0978
2771.157829 90.821 -78.4837
2791.238781 90.670 -79.7668
2811.465248 90.514 -80.9507
2831.838284 90.354 -82.0388
2852.358952 90.191 -83.0353
2873.028321 90.025 -83.9437
2893.847468 89.858 -84.7662
2914.817480 89.689 -85.5062
2935.939449 89.520 -86.1684
2957.214476 89.351 -86.7593
2978.643672 89.182 -87.2857
3000.228152 89.015 -87.7533
3021.969041 88.848 -88.1674
3043.867475 88.680 -88.5316
3065.924593 88.511 -88.8460
3088.141547 88.341 -89.1089
3110.519493 88.170 -89.3169
3133.059600 87.997 -89.4654
3155.763041 87.824 -89.5503
3178.631001 87.650 -89.5688
3201.664672 87.477 -89.5200
3224.865254 87.306 -89.4045
3248.233957 87.137 -89.2247
3271.771999 86.972 -88.9846
3295.480608 86.811 -88.6889
3319.361019 86.655 -88.3437
3343.414477 86.503 -87.9568
3367.642236 86.356 -87.5351
3392.045560 86.214 -87.0842
3416.625721 86.076 -86.6083
3441.383999 85.942 -86.1089
3466.321686 85.811 -85.5867
3491.440082 85.683 -85.0441
3516.740496 85.557 -84.4849
3542.224247 85.433 -83.9125
3567.892664 85.310 -83.3275
3593.747085 85.187 -82.7266
3619.788858 85.065 -82.1041
3646.019340 84.943 -81.4541
3672.439900 84.821 -80.7717
3699.051913 84.700 -80.0546
3725.856768 84.581 -79.3040
3752.855862 84.463 -78.5221
3780.050603 84.349 -77.7115
3807.442408 84.237 -76.8739
3835.032705 84.128 -76.0101
3862.822933 84.022 -75.1208
3890.814540 83.918 -74.2064
3919.008986 83.816 -73.2674
3947.407741 83.717 -72.3051
3976.012284 83.621 -71.3211
4004.824108 83.526 -70.3169
4033.844715 83.433 -69.2934
4063.075616 83.342 -68.2501
4092.518337 83.252 -67.1858
4122.174412 83.165 -66.0994
4152.045387 83.079 -64.9900
4182.132820 82.996 -63.8576
4212.438278 82.916 -62.7030
4242.963342 82.838 -61.5265
4273.709604 82.762 -60.3274
4304.678665 82.687 -59.1046
4335.872141 82.615 -57.8562
4367.291658 82.544 -56.5790
4398.938854 82.474 -55.2683
4430.815378 82.406 -53.9175
4462.922893 82.341 -52.5176
4495.263072 82.280 -51.0601
4527.837601 82.224 -49.5417
4560.648179 82.176 -47.9663
4593.696515 82.137 -46.3436
4626.984334 82.109 -44.6857
4660.513370 82.091 -43.0005
4694.285371 82.086 -41.2896
4728.302098 82.095 -39.5538
4762.565324 82.120 -37.8041
4797.076835 82.164 -36.0722
4831.838432 82.228 -34.4116
4866.851925 82.306 -32.8802
4902.119140 82.391 -31.5133
4937.641916 82.474 -30.3073
4973.422105 82.545 -29.2231
5009.461572 82.601 -28.2042
5045.762195 82.643 -27.1953
5082.325868 82.673 -26.1539
5119.154496 82.695 -25.0539
5156.250000 82.713 -23.8845
5193.614313 82.730 -22.6465
5231.249383 82.750 -21.3479
5269.157173 82.776 -20.0005
5307.339658 82.809 -18.6170
5345.798829 82.850 -17.2105
5384.536691 82.898 -15.7931
5423.555263 82.955 -14.3749
5462.856580 83.018 -12.9642
5502.442691 83.088 -11.5673
5542.315659 83.164 -10.1895
5582.477563 83.245 -8.8341
5622.930497 83.330 -7.5019
5663.676569 83.418 -6.1913
5704.717904 83.509 -4.8984
5746.056642 83.602 -3.6173
5787.694937 83.699 -2.3403
5829.634960 83.799 -1.0590
5871.878898 83.904 0.2320
5914.428953 84.017 1.5307
5957.287343 84.139 2.8267
6000.456303 84.272 4.1033
6043.938083 84.414 5.3431
6087.734950 84.565 6.5326
6131.849187 84.723 7.6639
6176.283094 84.888 8.7342
6221.038987 85.059 9.7434
6266.119200 85.235 10.6904
6311.526083 85.416 11.5720
6357.262002 85.603 12.3823
6403.329344 85.795 13.1138
6449.730508 85.991 13.7578
6496.467914 86.190 14.3069
6543.543998 86.391 14.7558
6590.961215 86.592 15.1012
6638.722037 86.791 15.3416
6686.828954 86.989 15.4754
6735.284473 87.183 15.5000
6784.091120 87.372 15.4111
6833.251441 87.556 15.2025
6882.767998 87.732 14.8685
6932.643372 87.898 14.4060
6982.880164 88.050 13.8159
7033.480992 88.187 13.1034
7084.448495 88.304 12.2776
7135.785329 88.400 11.3500
7187.494171 88.471 10.3341
7239.577717 88.516 9.2461
7292.038681 88.531 8.1059
7344.879799 88.516 6.9378
7398.103826 88.469 5.7704
7451.713536 88.387 4.6355
7505.711724 88.273 3.5669
7560.101205 88.127 2.5994
7614.884815 87.952 1.7673
7670.065409 87.750 1.1022
7725.645865 87.526 0.6316
7781.629080 87.286 0.3766
7838.017972 87.035 0.3513
7894.815481 86.779 0.5631
7952.024569 86.525 1.0117
8009.648217 86.280 1.6881
8067.689429 86.050 2.5705
8126.151233 85.842 3.6224
8185.036674 85.661 4.7918
8244.348824 85.508 6.0154
8304.090774 85.383 7.2266
8364.265639 85.281 8.3661
8424.876556 85.195 9.3941
8485.926684 85.115 10.2981
8547.419207 85.032 11.0956
8609.357330 84.938 11.8285
8671.744282 84.831 12.5530
8734.583316 84.710 13.3264
8797.877707 84.579 14.1962
8861.630756 84.443 15.1945
8925.845785 84.309 16.3351
8990.526143 84.184 17.6153
9055.675202 84.074 19.0183
9121.296357 83.983 20.5170
9187.393031 83.917 22.0782
9253.968668 83.876 23.6661
9321.026740 83.863 25.2449
9388.570742 83.879 26.7787
9456.604196 83.923 28.2307
9525.130648 83.994 29.5630
9594.153671 84.092 30.7347
9663.676863 84.214 31.7023
9733.703850 84.357 32.4184
9804.238280 84.514 32.8333
9875.283832 84.680 32.8959
9946.844210 84.843 32.5582
10018.923143 84.989 31.7821
10091.524390 85.101 30.5504
10164.651736 85.154 28.8822
10238.308993 85.125 26.8530
10312.500000 84.985 24.6204
10387.228626 84.711 22.4547
10462.498767 84.288 20.7704
10538.314345 83.725 20.1445
10614.679315 83.069 21.2736
10691.597657 82.422 24.7593
10769.073381 81.931 30.5997
10847.110526 81.730 37.6718
10925.713161 81.852 44.1383
11004.885382 82.208 48.7193
11084.631318 82.666 51.2410
11164.955126 83.120 52.1855
11245.860993 83.519 52.1682
11327.353138 83.857 51.6912
11409.435808 84.158 51.0635
11492.113283 84.451 50.3902
11575.389873 84.760 49.5992
11659.269920 85.089 48.5047
11743.757796 85.417 46.9150
11828.857906 85.708 44.7443
11914.574686 85.924 42.0612
12000.912606 86.040 39.0553
12087.876166 86.050 35.9633
12175.469900 85.966 33.0026
12263.698373 85.807 30.3332
12352.566187 85.601 28.0443
12442.077974 85.375 26.1601
12532.238400 85.154 24.6518
12623.052165 84.960 23.4532
12714.524005 84.809 22.4731
12806.658687 84.714 21.6026
12899.461015 84.684 20.7208
12992.935827 84.720 19.7005
13087.087996 84.821 18.4146
13181.922430 84.981 16.7413
13277.444074 85.186 14.5709
13373.657907 85.420 11.8137
13470.568945 85.659 8.4082
13568.182241 85.879 4.3268
13666.502883 86.052 -0.4167
13765.535996 86.151 -5.7613
13865.286744 86.151 -11.5966
13965.760328 86.033 -17.7676
14066.961984 85.786 -24.0901
14168.896989 85.410 -30.3755
14271.570658 84.916 -36.4581
14374.988342 84.321 -42.2181
14479.155433 83.649 -47.5914
14584.077362 82.923 -52.5684
14689.759598 82.166 -57.1819
14796.207652 81.392 -61.4873
14903.427072 80.614 -65.5435
15011.423448 79.835 -69.3987
15120.202410 79.058 -73.0867
15229.769630 78.284 -76.6287
15340.130819 77.511 -80.0386
15451.291730 76.742 -83.3269
15563.258160 75.977 -86.5042
15676.035944 75.219 -89.5822
15789.630962 74.470 -92.5740
15904.049137 73.734 -95.4947
16019.296433 73.014 -98.3629
16135.378859 72.315 -101.2027
16252.302465 71.641 -104.0445
16370.073348 70.994 -106.9234
16488.697648 70.378 -109.8778
16608.181548 69.796 -112.9482
16728.531278 69.251 -116.1745
16849.753112 68.744 -119.5951
16971.853368 68.278 -123.2477
17094.838414 67.854 -127.1724
17218.714660 67.476 -131.4155
17343.488565 67.146 -136.0317
17469.166632 66.865 -141.0832
17595.755415 66.637 -146.6366
17723.261512 66.464 -152.7620
17851.691571 66.346 -159.5321
17981.052287 66.284 -167.0229
18111.350404 66.275 -175.3164
18242.592715 66.316 175.4984
18374.786062 66.397 165.3318
18507.937336 66.503 154.1002
18642.053479 66.609 141.7344
18777.141484 66.687 128.1855
18913.208391 66.701 113.4273
19050.261296 66.613 97.4565
19188.307342 66.394 80.2914
19327.353727 66.023 61.9936
19467.407699 65.505 42.7903
19608.476560 64.873 23.4004
19750.567664 64.203 5.4604
19893.688419 63.618 -8.5545
20037.846286 63.270 -16.2511
