* Measurement data measured by REW V5.20.9
* Source: Input device not selected, no input selected, L, volume: no control. Timing signal peak level -17,7 dBFS, measurement signal peak level -11,6 dBFS
* Format: 256k Log Swept Sine, 1 sweep at -12,0 dBFS using an acoustic timing reference
* Dated: 03.02.2023 20:55:02
* REW Settings:
*  C-weighting compensation: Off
*  Target level: 75.0 dB
* Note: Delay 0,0219 ms (7,5 mm, 0,3 in) using estimated IR delay relative to Acoustic reference on  L with no timing offset
* Measurement: Shozy Pola
* Smoothing: 1/6 octave
* Frequency Step: 96 ppo
* Start Frequency: 20.141602 Hz
*
* Freq(Hz) SPL(dB) Phase(degrees)
20.141602 115.833 -107.8453
20.287556 115.849 -108.0113
20.434568 115.869 -108.2331
20.582645 115.895 -108.5040
20.731796 115.924 -108.8170
20.882027 115.956 -109.1653
21.033346 115.991 -109.5423
21.185763 116.028 -109.9424
21.339284 116.066 -110.3607
21.493917 116.105 -110.7931
21.649671 116.145 -111.2362
21.806553 116.185 -111.6871
21.964572 116.225 -112.1438
22.123737 116.265 -112.6042
22.284054 116.306 -113.0671
22.445534 116.346 -113.5314
22.608183 116.386 -113.9961
22.772012 116.425 -114.4607
22.937027 116.465 -114.9249
23.103238 116.504 -115.3885
23.270654 116.543 -115.8516
23.439282 116.581 -116.3140
23.609133 116.619 -116.7761
23.780215 116.657 -117.2379
23.952536 116.694 -117.6996
24.126106 116.731 -118.1613
24.300934 116.767 -118.6229
24.477028 116.803 -119.0844
24.654399 116.839 -119.5457
24.833055 116.874 -120.0065
25.013005 116.909 -120.4668
25.194260 116.943 -120.9264
25.376828 116.977 -121.3850
25.560719 117.010 -121.8427
25.745942 117.044 -122.2994
25.932508 117.077 -122.7552
26.120426 117.109 -123.2101
26.309705 117.142 -123.6643
26.500356 117.174 -124.1180
26.692388 117.206 -124.5710
26.885812 117.237 -125.0236
27.080638 117.268 -125.4756
27.276876 117.299 -125.9271
27.474535 117.329 -126.3778
27.673627 117.359 -126.8277
27.874161 117.388 -127.2766
28.076149 117.416 -127.7243
28.279600 117.444 -128.1708
28.484526 117.472 -128.6160
28.690937 117.499 -129.0597
28.898843 117.526 -129.5021
29.108256 117.552 -129.9431
29.319186 117.578 -130.3828
29.531645 117.604 -130.8212
29.745644 117.629 -131.2583
29.961193 117.654 -131.6944
30.178304 117.678 -132.1292
30.396989 117.703 -132.5631
30.617258 117.726 -132.9960
30.839123 117.750 -133.4280
31.062596 117.773 -133.8592
31.287688 117.796 -134.2897
31.514412 117.818 -134.7196
31.742778 117.840 -135.1489
31.972800 117.861 -135.5778
32.204488 117.882 -136.0063
32.437855 117.903 -136.4342
32.672913 117.923 -136.8616
32.909674 117.943 -137.2884
33.148151 117.962 -137.7144
33.388356 117.982 -138.1395
33.630302 118.000 -138.5635
33.874001 118.019 -138.9864
34.119466 118.037 -139.4079
34.366710 118.055 -139.8281
34.615745 118.073 -140.2469
34.866585 118.090 -140.6642
35.119243 118.107 -141.0801
35.373731 118.124 -141.4947
35.630064 118.140 -141.9080
35.888254 118.156 -142.3201
36.148315 118.171 -142.7313
36.410261 118.186 -143.1416
36.674104 118.201 -143.5510
36.939860 118.215 -143.9598
37.207542 118.229 -144.3678
37.477163 118.242 -144.7751
37.748738 118.255 -145.1816
38.022281 118.268 -145.5871
38.297806 118.280 -145.9916
38.575327 118.292 -146.3950
38.854860 118.304 -146.7972
39.136419 118.315 -147.1981
39.420017 118.327 -147.5979
39.705671 118.337 -147.9964
39.993395 118.348 -148.3937
40.283203 118.358 -148.7899
40.575112 118.368 -149.1849
40.869136 118.378 -149.5789
41.165290 118.387 -149.9718
41.463591 118.396 -150.3636
41.764053 118.405 -150.7543
42.066693 118.413 -151.1437
42.371525 118.421 -151.5319
42.678567 118.429 -151.9188
42.987834 118.436 -152.3043
43.299341 118.443 -152.6887
43.613106 118.450 -153.0718
43.929145 118.456 -153.4539
44.247473 118.462 -153.8348
44.568109 118.467 -154.2146
44.891068 118.472 -154.5932
45.216367 118.477 -154.9703
45.544023 118.481 -155.3457
45.874054 118.485 -155.7193
46.206476 118.489 -156.0909
46.541307 118.492 -156.4604
46.878565 118.495 -156.8281
47.218266 118.498 -157.1940
47.560429 118.500 -157.5587
47.905072 118.502 -157.9227
48.252212 118.504 -158.2865
48.601867 118.505 -158.6507
48.954056 118.507 -159.0157
49.308798 118.508 -159.3815
49.666109 118.509 -159.7478
50.026010 118.511 -160.1143
50.388520 118.511 -160.4802
50.753656 118.512 -160.8450
51.121437 118.512 -161.2081
51.491884 118.512 -161.5693
51.865016 118.512 -161.9284
52.240851 118.511 -162.2856
52.619410 118.509 -162.6409
53.000712 118.508 -162.9945
53.384777 118.506 -163.3467
53.771625 118.503 -163.6976
54.161276 118.500 -164.0472
54.553751 118.497 -164.3957
54.949070 118.494 -164.7429
55.347254 118.491 -165.0888
55.748323 118.487 -165.4332
56.152298 118.483 -165.7760
56.559201 118.478 -166.1171
56.969052 118.473 -166.4565
57.381873 118.468 -166.7940
57.797686 118.463 -167.1295
58.216512 118.457 -167.4631
58.638373 118.451 -167.7948
59.063291 118.444 -168.1246
59.491288 118.437 -168.4525
59.922386 118.430 -168.7787
60.356608 118.423 -169.1033
60.793977 118.415 -169.4263
61.234515 118.408 -169.7478
61.678246 118.400 -170.0680
62.125192 118.391 -170.3868
62.575377 118.383 -170.7043
63.028824 118.375 -171.0206
63.485557 118.366 -171.3358
63.945599 118.358 -171.6497
64.408975 118.349 -171.9626
64.875709 118.340 -172.2744
65.345825 118.331 -172.5852
65.819348 118.322 -172.8952
66.296302 118.312 -173.2044
66.776713 118.302 -173.5130
67.260604 118.292 -173.8210
67.748002 118.282 -174.1285
68.238932 118.272 -174.4353
68.733420 118.261 -174.7416
69.231490 118.250 -175.0471
69.733170 118.238 -175.3517
70.238485 118.226 -175.6553
70.747463 118.214 -175.9579
71.260128 118.202 -176.2592
71.776508 118.189 -176.5594
72.296630 118.176 -176.8584
72.820521 118.162 -177.1561
73.348209 118.148 -177.4527
73.879720 118.134 -177.7482
74.415083 118.120 -178.0425
74.954326 118.105 -178.3356
75.497475 118.090 -178.6275
76.044561 118.075 -178.9181
76.595612 118.059 -179.2074
77.150655 118.043 -179.4952
77.709720 118.027 -179.7816
78.272837 118.011 179.9335
78.840034 117.994 179.6502
79.411342 117.977 179.3684
79.986789 117.960 179.0882
80.566406 117.942 178.8095
81.150224 117.924 178.5323
81.738272 117.906 178.2564
82.330581 117.888 177.9820
82.927182 117.870 177.7088
83.528107 117.851 177.4371
84.133386 117.832 177.1666
84.743051 117.813 176.8976
85.357134 117.793 176.6301
85.975667 117.774 176.3640
86.598682 117.754 176.0994
87.226212 117.733 175.8364
87.858289 117.713 175.5748
88.494946 117.692 175.3147
89.136217 117.670 175.0562
89.782135 117.648 174.7990
90.432733 117.626 174.5433
91.088046 117.604 174.2891
91.748108 117.582 174.0364
92.412952 117.559 173.7852
93.082615 117.536 173.5355
93.757130 117.512 173.2874
94.436533 117.489 173.0409
95.120859 117.465 172.7959
95.810144 117.440 172.5526
96.504423 117.416 172.3108
97.203734 117.391 172.0707
97.908112 117.366 171.8324
98.617595 117.340 171.5959
99.332219 117.315 171.3612
100.052021 117.289 171.1285
100.777039 117.262 170.8979
101.507311 117.236 170.6693
102.242875 117.209 170.4427
102.983769 117.181 170.2184
103.730032 117.154 169.9960
104.481702 117.126 169.7758
105.238820 117.098 169.5576
106.001424 117.070 169.3415
106.769554 117.041 169.1273
107.543250 117.012 168.9150
108.322553 116.984 168.7047
109.107503 116.954 168.4963
109.898141 116.925 168.2897
110.694508 116.896 168.0851
111.496646 116.866 167.8825
112.304596 116.836 167.6818
113.118402 116.806 167.4831
113.938104 116.775 167.2863
114.763747 116.745 167.0914
115.595372 116.714 166.8984
116.433024 116.683 166.7074
117.276746 116.651 166.5185
118.126581 116.620 166.3317
118.982575 116.588 166.1470
119.844772 116.556 165.9644
120.713217 116.524 165.7841
121.587954 116.491 165.6059
122.469031 116.458 165.4300
123.356492 116.426 165.2563
124.250384 116.392 165.0850
125.150753 116.359 164.9161
126.057647 116.325 164.7497
126.971113 116.292 164.5859
127.891198 116.257 164.4247
128.817950 116.223 164.2659
129.751418 116.189 164.1096
130.691651 116.154 163.9557
131.638696 116.119 163.8043
132.592604 116.083 163.6552
133.553425 116.048 163.5087
134.521208 116.012 163.3647
135.496004 115.976 163.2234
136.477864 115.939 163.0847
137.466839 115.903 162.9485
138.462981 115.866 162.8150
139.466340 115.829 162.6841
140.476971 115.791 162.5557
141.494925 115.754 162.4298
142.520256 115.716 162.3066
143.553016 115.678 162.1861
144.593260 115.640 162.0684
145.641043 115.602 161.9537
146.696418 115.563 161.8419
147.759441 115.524 161.7332
148.830166 115.485 161.6278
149.908651 115.446 161.5256
150.994951 115.407 161.4268
152.089123 115.367 161.3314
153.191223 115.327 161.2394
154.301310 115.287 161.1508
155.419441 115.247 161.0654
156.545674 115.207 160.9833
157.680069 115.166 160.9044
158.822683 115.125 160.8289
159.973578 115.085 160.7567
161.132813 115.043 160.6881
162.300447 115.002 160.6234
163.476543 114.961 160.5629
164.661162 114.919 160.5068
165.854364 114.877 160.4550
167.056213 114.835 160.4077
168.266772 114.793 160.3647
169.486102 114.751 160.3260
170.714268 114.709 160.2916
171.951334 114.667 160.2614
173.197364 114.626 160.2356
174.452424 114.584 160.2144
175.716578 114.543 160.1978
176.989893 114.502 160.1862
178.272434 114.461 160.1797
179.564270 114.420 160.1783
180.865467 114.380 160.1821
182.176092 114.339 160.1909
183.496216 114.300 160.2047
184.825905 114.260 160.2228
186.165229 114.221 160.2451
187.514259 114.182 160.2708
188.873065 114.144 160.2996
190.241717 114.106 160.3311
191.620287 114.068 160.3651
193.008847 114.031 160.4012
194.407468 113.995 160.4396
195.816225 113.959 160.4798
197.235190 113.923 160.5217
198.664438 113.887 160.5652
200.104042 113.851 160.6098
201.554078 113.816 160.6556
203.014622 113.781 160.7024
204.485750 113.746 160.7503
205.967538 113.711 160.7993
207.460064 113.676 160.8498
208.963405 113.641 160.9019
210.477640 113.606 160.9558
212.002848 113.571 161.0118
213.539108 113.536 161.0703
215.086500 113.501 161.1315
216.645105 113.466 161.1956
218.215005 113.432 161.2630
219.796281 113.397 161.3339
221.389015 113.363 161.4084
222.993292 113.328 161.4870
224.609193 113.294 161.5697
226.236804 113.260 161.6566
227.876209 113.227 161.7479
229.527494 113.193 161.8434
231.190745 113.160 161.9432
232.866048 113.128 162.0471
234.553491 113.096 162.1549
236.253163 113.064 162.2664
237.965150 113.033 162.3812
239.689544 113.003 162.4993
241.426433 112.973 162.6203
243.175909 112.943 162.7440
244.938062 112.914 162.8703
246.712984 112.886 162.9990
248.500768 112.858 163.1299
250.301507 112.831 163.2629
252.115295 112.804 163.3980
253.942226 112.778 163.5350
255.782396 112.752 163.6739
257.635901 112.727 163.8146
259.502837 112.702 163.9570
261.383301 112.677 164.1010
263.277392 112.654 164.2467
265.185209 112.630 164.3941
267.106850 112.608 164.5431
269.042417 112.586 164.6938
270.992009 112.564 164.8460
272.955729 112.543 164.9998
274.933678 112.523 165.1549
276.925961 112.503 165.3113
278.932681 112.484 165.4688
280.953942 112.465 165.6271
282.989850 112.447 165.7863
285.040511 112.430 165.9460
287.106032 112.413 166.1062
289.186521 112.397 166.2666
291.282086 112.382 166.4271
293.392836 112.367 166.5874
295.518881 112.353 166.7474
297.660333 112.340 166.9070
299.817302 112.327 167.0659
301.989902 112.315 167.2240
304.178245 112.303 167.3812
306.382446 112.292 167.5372
308.602620 112.282 167.6921
310.838882 112.272 167.8457
313.091348 112.262 167.9980
315.360137 112.253 168.1489
317.645367 112.245 168.2983
319.947156 112.237 168.4463
322.265625 112.230 168.5927
324.600895 112.223 168.7375
326.953086 112.216 168.8807
329.322323 112.210 169.0222
331.708729 112.204 169.1618
334.112427 112.199 169.2997
336.533543 112.194 169.4356
338.972204 112.189 169.5697
341.428536 112.184 169.7018
343.902668 112.180 169.8320
346.394729 112.176 169.9603
348.904848 112.173 170.0868
351.433156 112.170 170.2114
353.979786 112.166 170.3344
356.544869 112.164 170.4558
359.128540 112.161 170.5758
361.730934 112.159 170.6945
364.352185 112.157 170.8119
366.992431 112.155 170.9280
369.651810 112.154 171.0427
372.330459 112.153 171.1559
375.028519 112.152 171.2674
377.746130 112.152 171.3768
380.483434 112.152 171.4837
383.240574 112.153 171.5878
386.017693 112.154 171.6888
388.814937 112.155 171.7861
391.632450 112.157 171.8795
394.470380 112.159 171.9686
397.328875 112.161 172.0530
400.208084 112.163 172.1327
403.108157 112.165 172.2074
406.029245 112.167 172.2772
408.971500 112.169 172.3421
411.935076 112.171 172.4025
414.920127 112.172 172.4587
417.926810 112.173 172.5111
420.955280 112.173 172.5604
424.005695 112.173 172.6071
427.078215 112.172 172.6519
430.173000 112.170 172.6953
433.290211 112.168 172.7378
436.430010 112.165 172.7799
439.592562 112.162 172.8220
442.778031 112.159 172.8645
445.986583 112.155 172.9075
449.218386 112.150 172.9514
452.473607 112.146 172.9962
455.752418 112.141 173.0420
459.054987 112.135 173.0889
462.381489 112.130 173.1371
465.732096 112.124 173.1865
469.106983 112.118 173.2373
472.506325 112.111 173.2894
475.930301 112.105 173.3430
479.379088 112.098 173.3980
482.852867 112.092 173.4545
486.351817 112.085 173.5127
489.876123 112.078 173.5724
493.425968 112.071 173.6337
497.001536 112.063 173.6967
500.603014 112.056 173.7614
504.230589 112.049 173.8278
507.884452 112.041 173.8959
511.564792 112.033 173.9657
515.271802 112.026 174.0373
519.005673 112.018 174.1107
522.766602 112.010 174.1860
526.554785 112.002 174.2632
530.370418 111.994 174.3425
534.213700 111.987 174.4239
538.084833 111.979 174.5074
541.984018 111.971 174.5933
545.911457 111.963 174.6814
549.867357 111.955 174.7719
553.851922 111.947 174.8648
557.865362 111.939 174.9601
561.907884 111.931 175.0579
565.979700 111.924 175.1581
570.081022 111.916 175.2607
574.212064 111.909 175.3658
578.373042 111.901 175.4733
582.564171 111.894 175.5832
586.785671 111.887 175.6957
591.037762 111.880 175.8106
595.320665 111.873 175.9280
599.634604 111.867 176.0481
603.979804 111.860 176.1707
608.356491 111.854 176.2960
612.764893 111.848 176.4240
617.205240 111.842 176.5548
621.677763 111.837 176.6884
626.182696 111.832 176.8247
630.720274 111.827 176.9639
635.290733 111.823 177.1060
639.894312 111.818 177.2510
644.531250 111.815 177.3988
649.201789 111.811 177.5496
653.906173 111.808 177.7034
658.644647 111.805 177.8602
663.417457 111.803 178.0200
668.224854 111.801 178.1830
673.067086 111.800 178.3492
677.944408 111.799 178.5187
682.857073 111.798 178.6915
687.805336 111.799 178.8678
692.789457 111.799 179.0476
697.809695 111.801 179.2310
702.866312 111.802 179.4182
707.959571 111.805 179.6090
713.089738 111.809 179.8036
718.257080 111.813 -179.9980
723.461867 111.818 -179.7961
728.704370 111.824 -179.5908
733.984862 111.832 -179.3825
739.303619 111.840 -179.1717
744.660918 111.850 -178.9592
750.057038 111.861 -178.7458
755.492260 111.874 -178.5324
760.966869 111.887 -178.3201
766.481148 111.902 -178.1094
772.035387 111.918 -177.9007
777.629873 111.934 -177.6937
783.264900 111.951 -177.4877
788.940760 111.969 -177.2813
794.657750 111.987 -177.0733
800.416168 112.007 -176.8621
806.216313 112.027 -176.6467
812.058489 112.048 -176.4268
817.943000 112.071 -176.2022
823.870152 112.096 -175.9738
829.840255 112.123 -175.7430
835.853619 112.153 -175.5118
841.910559 112.185 -175.2828
848.011390 112.219 -175.0587
854.156430 112.255 -174.8425
860.346000 112.294 -174.6367
866.580422 112.334 -174.4430
872.860020 112.376 -174.2617
879.185124 112.418 -174.0921
885.556062 112.460 -173.9323
891.973166 112.503 -173.7800
898.436771 112.546 -173.6329
904.947215 112.590 -173.4891
911.504835 112.635 -173.3474
918.109975 112.680 -173.2073
924.762978 112.727 -173.0689
931.464192 112.775 -172.9327
938.213966 112.824 -172.7997
945.012651 112.876 -172.6709
951.860602 112.929 -172.5477
958.758176 112.984 -172.4311
965.705733 113.041 -172.3224
972.703635 113.100 -172.2228
979.752246 113.160 -172.1335
986.851935 113.223 -172.0554
994.003071 113.287 -171.9896
1001.206027 113.353 -171.9369
1008.461179 113.420 -171.8983
1015.768904 113.489 -171.8745
1023.129584 113.559 -171.8662
1030.543603 113.631 -171.8742
1038.011347 113.704 -171.8990
1045.533205 113.779 -171.9413
1053.109569 113.854 -172.0016
1060.740836 113.930 -172.0805
1068.427401 114.007 -172.1783
1076.169666 114.085 -172.2956
1083.968035 114.164 -172.4328
1091.822915 114.243 -172.5903
1099.734713 114.322 -172.7684
1107.703844 114.402 -172.9676
1115.730723 114.481 -173.1881
1123.815768 114.561 -173.4303
1131.959400 114.641 -173.6944
1140.162045 114.720 -173.9807
1148.424129 114.799 -174.2893
1156.746083 114.877 -174.6204
1165.128342 114.955 -174.9740
1173.571343 115.032 -175.3504
1182.075524 115.108 -175.7495
1190.641331 115.183 -176.1714
1199.269209 115.257 -176.6161
1207.959608 115.329 -177.0834
1216.712981 115.400 -177.5734
1225.529785 115.469 -178.0858
1234.410479 115.536 -178.6204
1243.355526 115.601 -179.1771
1252.365393 115.664 -179.7556
1261.440549 115.725 179.6444
1270.581467 115.784 179.0233
1279.788624 115.839 178.3815
1289.062500 115.892 177.7193
1298.403578 115.943 177.0373
1307.812346 115.990 176.3361
1317.289293 116.033 175.6161
1326.834914 116.074 174.8782
1336.449707 116.110 174.1230
1346.134173 116.144 173.3515
1355.888816 116.173 172.5643
1365.714145 116.198 171.7626
1375.610673 116.219 170.9473
1385.578915 116.236 170.1195
1395.619391 116.248 169.2803
1405.732624 116.256 168.4310
1415.919142 116.259 167.5728
1426.179476 116.257 166.7072
1436.514160 116.251 165.8354
1446.923734 116.240 164.9590
1457.408740 116.224 164.0793
1467.969724 116.203 163.1981
1478.607238 116.176 162.3168
1489.321836 116.145 161.4369
1500.114076 116.109 160.5600
1510.984521 116.067 159.6877
1521.933737 116.021 158.8216
1532.962297 115.970 157.9632
1544.070773 115.914 157.1140
1555.259747 115.853 156.2756
1566.529800 115.787 155.4495
1577.881521 115.716 154.6370
1589.315501 115.641 153.8395
1600.832336 115.562 153.0586
1612.432627 115.478 152.2953
1624.116978 115.391 151.5511
1635.886000 115.299 150.8270
1647.740304 115.203 150.1241
1659.680509 115.104 149.4434
1671.707238 115.002 148.7858
1683.821118 114.896 148.1522
1696.022780 114.787 147.5433
1708.312860 114.675 146.9597
1720.692000 114.561 146.4021
1733.160843 114.444 145.8708
1745.720041 114.325 145.3665
1758.370248 114.203 144.8892
1771.112124 114.080 144.4394
1783.946332 113.955 144.0171
1796.873543 113.829 143.6224
1809.894429 113.701 143.2552
1823.009670 113.572 142.9157
1836.219950 113.443 142.6036
1849.525956 113.312 142.3187
1862.928384 113.181 142.0609
1876.427931 113.049 141.8300
1890.025301 112.917 141.6256
1903.721204 112.785 141.4474
1917.516352 112.653 141.2952
1931.411466 112.521 141.1685
1945.407270 112.389 141.0670
1959.504493 112.257 140.9901
1973.703870 112.126 140.9376
1988.006142 111.996 140.9089
2002.412054 111.867 140.9035
2016.922357 111.738 140.9210
2031.537808 111.610 140.9608
2046.259169 111.483 141.0224
2061.087206 111.358 141.1053
2076.022694 111.233 141.2090
2091.066410 111.110 141.3330
2106.219139 110.988 141.4767
2121.481671 110.868 141.6397
2136.854802 110.749 141.8214
2152.339333 110.632 142.0213
2167.936071 110.516 142.2390
2183.645829 110.402 142.4739
2199.469427 110.290 142.7256
2215.407689 110.179 142.9938
2231.461446 110.070 143.2779
2247.631536 109.964 143.5776
2263.918800 109.859 143.8924
2280.324089 109.756 144.2220
2296.848258 109.656 144.5659
2313.492167 109.557 144.9238
2330.256685 109.461 145.2952
2347.142685 109.367 145.6796
2364.151049 109.275 146.0765
2381.282662 109.185 146.4857
2398.538418 109.098 146.9066
2415.919216 109.013 147.3388
2433.425962 108.931 147.7819
2451.059570 108.850 148.2353
2468.820958 108.773 148.6988
2486.711052 108.698 149.1718
2504.730786 108.625 149.6539
2522.881098 108.555 150.1447
2541.162934 108.488 150.6438
2559.577248 108.424 151.1507
2578.125000 108.362 151.6650
2596.807157 108.303 152.1862
2615.624692 108.247 152.7139
2634.578586 108.194 153.2477
2653.669829 108.143 153.7872
2672.899414 108.096 154.3319
2692.268345 108.052 154.8815
2711.777632 108.010 155.4355
2731.428290 107.972 155.9936
2751.221345 107.938 156.5552
2771.157829 107.906 157.1200
2791.238781 107.878 157.6876
2811.465248 107.853 158.2574
2831.838284 107.832 158.8291
2852.358952 107.814 159.4021
2873.028321 107.800 159.9760
2893.847468 107.790 160.5502
2914.817480 107.784 161.1243
2935.939449 107.782 161.6974
2957.214476 107.784 162.2692
2978.643672 107.790 162.8387
3000.228152 107.800 163.4052
3021.969041 107.815 163.9678
3043.867475 107.835 164.5255
3065.924593 107.859 165.0772
3088.141547 107.889 165.6219
3110.519493 107.923 166.1583
3133.059600 107.963 166.6851
3155.763041 108.008 167.2009
3178.631001 108.059 167.7040
3201.664672 108.116 168.1929
3224.865254 108.178 168.6658
3248.233957 108.247 169.1207
3271.771999 108.323 169.5557
3295.480608 108.404 169.9685
3319.361019 108.493 170.3568
3343.414477 108.589 170.7180
3367.642236 108.692 171.0495
3392.045560 108.803 171.3483
3416.625721 108.921 171.6113
3441.383999 109.047 171.8349
3466.321686 109.182 172.0154
3491.440082 109.325 172.1487
3516.740496 109.477 172.2302
3542.224247 109.637 172.2549
3567.892664 109.807 172.2178
3593.747085 109.987 172.1131
3619.788858 110.176 171.9347
3646.019340 110.374 171.6762
3672.439900 110.583 171.3304
3699.051913 110.801 170.8898
3725.856768 111.030 170.3460
3752.855862 111.268 169.6901
3780.050603 111.515 168.9126
3807.442408 111.771 168.0033
3835.032705 112.035 166.9517
3862.822933 112.306 165.7468
3890.814540 112.583 164.3777
3919.008986 112.863 162.8340
3947.407741 113.146 161.1058
3976.012284 113.427 159.1841
4004.824108 113.706 157.0617
4033.844715 113.977 154.7332
4063.075616 114.240 152.1953
4092.518337 114.489 149.4475
4122.174412 114.722 146.4922
4152.045387 114.934 143.3347
4182.132820 115.123 139.9839
4212.438278 115.286 136.4514
4242.963342 115.419 132.7520
4273.709604 115.519 128.9032
4304.678665 115.585 124.9244
4335.872141 115.615 120.8369
4367.291658 115.608 116.6628
4398.938854 115.563 112.4247
4430.815378 115.480 108.1446
4462.922893 115.361 103.8426
4495.263072 115.208 99.5359
4527.837601 115.022 95.2381
4560.648179 114.807 90.9574
4593.696515 114.564 86.6973
4626.984334 114.297 82.4575
4660.513370 114.006 78.2362
4694.285371 113.692 74.0332
4728.302098 113.354 69.8519
4762.565324 112.991 65.7005
4797.076835 112.601 61.5912
4831.838432 112.185 57.5395
4866.851925 111.740 53.5629
4902.119140 111.268 49.6793
4937.641916 110.768 45.9066
4973.422105 110.243 42.2618
5009.461572 109.693 38.7605
5045.762195 109.121 35.4162
5082.325868 108.530 32.2411
5119.154496 107.921 29.2448
5156.250000 107.299 26.4353
5193.614313 106.666 23.8184
5231.249383 106.025 21.3981
5269.157173 105.381 19.1767
5307.339658 104.737 17.1547
5345.798829 104.097 15.3309
5384.536691 103.464 13.7025
5423.555263 102.844 12.2650
5462.856580 102.238 11.0128
5502.442691 101.652 9.9384
5542.315659 101.088 9.0334
5582.477563 100.550 8.2888
5622.930497 100.042 7.6942
5663.676569 99.566 7.2393
5704.717904 99.124 6.9133
5746.056642 98.718 6.7058
5787.694937 98.349 6.6064
5829.634960 98.018 6.6056
5871.878898 97.725 6.6946
5914.428953 97.469 6.8661
5957.287343 97.251 7.1136
6000.456303 97.068 7.4324
6043.938083 96.920 7.8191
6087.734950 96.805 8.2720
6131.849187 96.722 8.7911
6176.283094 96.669 9.3776
6221.038987 96.646 10.0338
6266.119200 96.653 10.7629
6311.526083 96.688 11.5684
6357.262002 96.753 12.4530
6403.329344 96.849 13.4184
6449.730508 96.976 14.4636
6496.467914 97.135 15.5844
6543.543998 97.329 16.7719
6590.961215 97.559 18.0121
6638.722037 97.826 19.2851
6686.828954 98.129 20.5654
6735.284473 98.470 21.8226
6784.091120 98.846 23.0223
6833.251441 99.256 24.1288
6882.767998 99.696 25.1069
6932.643372 100.163 25.9241
6982.880164 100.654 26.5527
7033.480992 101.163 26.9705
7084.448495 101.686 27.1604
7135.785329 102.219 27.1103
7187.494171 102.759 26.8114
7239.577717 103.300 26.2576
7292.038681 103.839 25.4437
7344.879799 104.372 24.3663
7398.103826 104.894 23.0227
7451.713536 105.400 21.4119
7505.711724 105.887 19.5353
7560.101205 106.349 17.3976
7614.884815 106.781 15.0079
7670.065409 107.178 12.3801
7725.645865 107.535 9.5338
7781.629080 107.848 6.4948
7838.017972 108.111 3.2946
7894.815481 108.321 -0.0292
7952.024569 108.477 -3.4341
8009.648217 108.576 -6.8743
8067.689429 108.618 -10.3016
8126.151233 108.604 -13.6685
8185.036674 108.536 -16.9288
8244.348824 108.416 -20.0398
8304.090774 108.250 -22.9631
8364.265639 108.040 -25.6654
8424.876556 107.792 -28.1178
8485.926684 107.512 -30.2971
8547.419207 107.204 -32.1847
8609.357330 106.874 -33.7669
8671.744282 106.527 -35.0355
8734.583316 106.169 -35.9875
8797.877707 105.806 -36.6252
8861.630756 105.442 -36.9559
8925.845785 105.082 -36.9914
8990.526143 104.730 -36.7469
9055.675202 104.390 -36.2402
9121.296357 104.065 -35.4901
9187.393031 103.756 -34.5143
9253.968668 103.466 -33.3283
9321.026740 103.197 -31.9425
9388.570742 102.949 -30.3602
9456.604196 102.724 -28.5752
9525.130648 102.524 -26.5699
9594.153671 102.353 -24.3134
9663.676863 102.214 -21.7623
9733.703850 102.115 -18.8638
9804.238280 102.065 -15.5642
9875.283832 102.072 -11.8264
9946.844210 102.148 -7.6548
10018.923143 102.301 -3.1251
10091.524390 102.536 1.5944
10164.651736 102.853 6.2521
10238.308993 103.242 10.5606
10312.500000 103.689 14.2662
10387.228626 104.177 17.2052
10462.498767 104.686 19.3220
10538.314345 105.200 20.6496
10614.679315 105.704 21.2747
10691.597657 106.190 21.3040
10769.073381 106.650 20.8417
10847.110526 107.080 19.9778
10925.713161 107.478 18.7844
11004.885382 107.841 17.3176
11084.631318 108.167 15.6213
11164.955126 108.454 13.7310
11245.860993 108.700 11.6781
11327.353138 108.903 9.4934
11409.435808 109.061 7.2094
11492.113283 109.171 4.8611
11575.389873 109.232 2.4875
11659.269920 109.243 0.1305
11743.757796 109.205 -2.1659
11828.857906 109.118 -4.3566
11914.574686 108.986 -6.3966
12000.912606 108.811 -8.2432
12087.876166 108.596 -9.8558
12175.469900 108.348 -11.1984
12263.698373 108.072 -12.2386
12352.566187 107.773 -12.9496
12442.077974 107.458 -13.3096
12532.238400 107.136 -13.3022
12623.052165 106.811 -12.9177
12714.524005 106.494 -12.1524
12806.658687 106.190 -11.0100
12899.461015 105.909 -9.5020
12992.935827 105.657 -7.6485
13087.087996 105.443 -5.4792
13181.922430 105.273 -3.0349
13277.444074 105.156 -0.3677
13373.657907 105.095 2.4580
13470.568945 105.097 5.3661
13568.182241 105.162 8.2705
13666.502883 105.293 11.0781
13765.535996 105.486 13.6932
13865.286744 105.737 16.0231
13965.760328 106.040 17.9826
14066.961984 106.386 19.4994
14168.896989 106.764 20.5162
14271.570658 107.162 20.9928
14374.988342 107.568 20.9060
14479.155433 107.967 20.2495
14584.077362 108.348 19.0327
14689.759598 108.696 17.2802
14796.207652 108.998 15.0316
14903.427072 109.242 12.3420
15011.423448 109.417 9.2813
15120.202410 109.514 5.9348
15229.769630 109.525 2.4005
15340.130819 109.446 -1.2134
15451.291730 109.276 -4.7954
15563.258160 109.016 -8.2361
15676.035944 108.673 -11.4339
15789.630962 108.252 -14.2977
15904.049137 107.762 -16.7478
16019.296433 107.213 -18.7156
16135.378859 106.615 -20.1418
16252.302465 105.977 -20.9769
16370.073348 105.313 -21.1807
16488.697648 104.632 -20.7253
16608.181548 103.948 -19.6002
16728.531278 103.273 -17.8188
16849.753112 102.620 -15.4287
16971.853368 102.003 -12.5182
17094.838414 101.434 -9.2208
17218.714660 100.924 -5.7084
17343.488565 100.479 -2.1752
17469.166632 100.103 1.1876
17595.755415 99.796 4.2139
17723.261512 99.551 6.7792
17851.691571 99.358 8.8039
17981.052287 99.205 10.2485
18111.350404 99.076 11.1048
18242.592715 98.956 11.3890
18374.786062 98.827 11.1385
18507.937336 98.673 10.4116
18642.053479 98.479 9.2870
18777.141484 98.235 7.8616
18913.208391 97.932 6.2434
19050.261296 97.571 4.5407
19188.307342 97.158 2.8483
19327.353727 96.706 1.2333
19467.407699 96.240 -0.2761
19608.476560 95.789 -1.7005
19750.567664 95.395 -3.1086
19893.688419 95.099 -4.6042
20037.846286 94.939 -6.2939
