* Measurement data measured by REW V5.20.9
* Source: Микрофон (HiBy FC3), MICROPHONE (Общая громкость), L, volume: 0,900. Timing signal peak level 0,0 dBFS, measurement signal peak level zero
* Format: 256k Log Swept Sine, 1 sweep at -12,0 dBFS using an acoustic timing reference
* Dated: 17.01.2023 20:40:34
* REW Settings:
*  C-weighting compensation: Off
*  Target level: 75.0 dB
* Note: 
* Measurement: Shozy B2
* Smoothing: 1/12 octave
* Frequency Step: 96 ppo
* Start Frequency: 20.141602 Hz
*
* Freq(Hz) SPL(dB) Phase(degrees)
20.141602 89.005 -124.5601
20.287556 89.023 -124.5504
20.434568 89.049 -124.6314
20.582645 89.081 -124.7762
20.731796 89.117 -124.9618
20.882027 89.155 -125.1711
21.033346 89.194 -125.3932
21.185763 89.234 -125.6220
21.339284 89.273 -125.8511
21.493917 89.313 -126.0780
21.649671 89.353 -126.3018
21.806553 89.394 -126.5227
21.964572 89.435 -126.7418
22.123737 89.476 -126.9715
22.284054 89.517 -127.2068
22.445534 89.558 -127.4470
22.608183 89.598 -127.6941
22.772012 89.636 -127.9493
22.937027 89.673 -128.2129
23.103238 89.708 -128.4928
23.270654 89.740 -128.7836
23.439282 89.770 -129.0768
23.609133 89.797 -129.3687
23.780215 89.823 -129.6557
23.952536 89.848 -129.9346
24.126106 89.873 -130.2144
24.300934 89.899 -130.4869
24.477028 89.927 -130.7480
24.654399 89.958 -130.9989
24.833055 89.991 -131.2414
25.013005 90.028 -131.4783
25.194260 90.066 -131.7231
25.376828 90.107 -131.9629
25.560719 90.148 -132.1969
25.745942 90.188 -132.4231
25.932508 90.228 -132.6391
26.120426 90.266 -132.8488
26.309705 90.303 -133.0482
26.500356 90.338 -133.2345
26.692388 90.372 -133.4104
26.885812 90.405 -133.5810
27.080638 90.439 -133.7568
27.276876 90.472 -133.9476
27.474535 90.506 -134.1558
27.673627 90.540 -134.3878
27.874161 90.574 -134.6471
28.076149 90.606 -134.9339
28.279600 90.637 -135.2447
28.484526 90.666 -135.5736
28.690937 90.693 -135.9122
28.898843 90.720 -136.2514
29.108256 90.747 -136.5869
29.319186 90.774 -136.9118
29.531645 90.803 -137.2178
29.745644 90.834 -137.5035
29.961193 90.867 -137.7698
30.178304 90.902 -138.0108
30.396989 90.938 -138.2371
30.617258 90.975 -138.4542
30.839123 91.012 -138.6654
31.062596 91.047 -138.8795
31.287688 91.081 -139.1082
31.514412 91.113 -139.3360
31.742778 91.142 -139.5634
31.972800 91.171 -139.7909
32.204488 91.197 -140.0420
32.437855 91.224 -140.2979
32.672913 91.250 -140.5561
32.909674 91.276 -140.8169
33.148151 91.303 -141.0684
33.388356 91.329 -141.3136
33.630302 91.356 -141.5578
33.874001 91.382 -141.7990
34.119466 91.408 -142.0465
34.366710 91.433 -142.2997
34.615745 91.457 -142.5461
34.866585 91.481 -142.7865
35.119243 91.504 -143.0257
35.373731 91.527 -143.2664
35.630064 91.550 -143.5079
35.888254 91.573 -143.7521
36.148315 91.596 -144.0035
36.410261 91.620 -144.2611
36.674104 91.643 -144.5212
36.939860 91.667 -144.7821
37.207542 91.692 -145.0507
37.477163 91.717 -145.3198
37.748738 91.743 -145.5862
38.022281 91.769 -145.8501
38.297806 91.795 -146.1134
38.575327 91.820 -146.3741
38.854860 91.844 -146.6320
39.136419 91.868 -146.8871
39.420017 91.890 -147.1391
39.705671 91.912 -147.3877
39.993395 91.933 -147.6338
40.283203 91.954 -147.8917
40.575112 91.975 -148.1497
40.869136 91.995 -148.4081
41.165290 92.017 -148.6634
41.463591 92.038 -148.9155
41.764053 92.059 -149.1657
42.066693 92.079 -149.4171
42.371525 92.098 -149.6793
42.678567 92.117 -149.9389
42.987834 92.135 -150.1969
43.299341 92.152 -150.4597
43.613106 92.168 -150.7228
43.929145 92.183 -150.9860
44.247473 92.198 -151.2467
44.568109 92.213 -151.5056
44.891068 92.227 -151.7622
45.216367 92.242 -152.0294
45.544023 92.257 -152.2992
45.874054 92.271 -152.5638
46.206476 92.285 -152.8181
46.541307 92.297 -153.0627
46.878565 92.309 -153.2999
47.218266 92.319 -153.5240
47.560429 92.329 -153.7392
47.905072 92.338 -153.9509
48.252212 92.347 -154.1825
48.601867 92.357 -154.4235
48.954056 92.367 -154.6668
49.308798 92.377 -154.9139
49.666109 92.387 -155.1615
50.026010 92.396 -155.4074
50.388520 92.404 -155.6592
50.753656 92.412 -155.9044
51.121437 92.418 -156.1339
51.491884 92.424 -156.3393
51.865016 92.430 -156.5401
52.240851 92.435 -156.7595
52.619410 92.440 -156.9900
53.000712 92.444 -157.2207
53.384777 92.449 -157.4592
53.771625 92.453 -157.6983
54.161276 92.457 -157.9392
54.553751 92.461 -158.1822
54.949070 92.465 -158.4245
55.347254 92.468 -158.6319
55.748323 92.471 -158.8331
56.152298 92.473 -159.0625
56.559201 92.476 -159.3398
56.969052 92.478 -159.6161
57.381873 92.479 -159.8567
57.797686 92.481 -160.0931
58.216512 92.482 -160.3236
58.638373 92.483 -160.5486
59.063291 92.483 -160.7764
59.491288 92.483 -161.0263
59.922386 92.483 -161.2747
60.356608 92.483 -161.5065
60.793977 92.483 -161.7331
61.234515 92.483 -161.9667
61.678246 92.483 -162.2064
62.125192 92.483 -162.4433
62.575377 92.484 -162.6757
63.028824 92.485 -162.9075
63.485557 92.486 -163.1502
63.945599 92.487 -163.3912
64.408975 92.487 -163.6366
64.875709 92.488 -163.8804
65.345825 92.489 -164.1297
65.819348 92.489 -164.3795
66.296302 92.490 -164.6156
66.776713 92.490 -164.8428
67.260604 92.490 -165.0748
67.748002 92.490 -165.3111
68.238932 92.489 -165.5398
68.733420 92.488 -165.7602
69.231490 92.487 -165.9972
69.733170 92.485 -166.2535
70.238485 92.484 -166.4987
70.747463 92.482 -166.7318
71.260128 92.481 -166.9617
71.776508 92.479 -167.1893
72.296630 92.478 -167.4203
72.820521 92.478 -167.6542
73.348209 92.477 -167.8756
73.879720 92.477 -168.0890
74.415083 92.477 -168.3424
74.954326 92.476 -168.6046
75.497475 92.474 -168.8247
76.044561 92.471 -169.0453
76.595612 92.468 -169.3414
77.150655 92.464 -169.6042
77.709720 92.461 -169.7771
78.272837 92.458 -169.9614
78.840034 92.456 -170.1572
79.411342 92.455 -170.3662
79.986789 92.454 -170.5792
80.566406 92.453 -170.7627
81.150224 92.451 -170.9444
81.738272 92.450 -171.1230
82.330581 92.449 -171.3563
82.927182 92.448 -171.6318
83.528107 92.446 -171.9014
84.133386 92.445 -172.1604
84.743051 92.443 -172.3910
85.357134 92.441 -172.5676
85.975667 92.439 -172.7043
86.598682 92.438 -172.9744
87.226212 92.437 -173.2298
87.858289 92.435 -173.4507
88.494946 92.432 -173.6204
89.136217 92.430 -173.8055
89.782135 92.427 -174.1051
90.432733 92.425 -174.3300
91.088046 92.424 -174.5169
91.748108 92.423 -174.7127
92.412952 92.421 -174.9235
93.082615 92.419 -175.1426
93.757130 92.417 -175.3524
94.436533 92.414 -175.5704
95.120859 92.411 -175.7881
95.810144 92.408 -175.9871
96.504423 92.405 -176.1754
97.203734 92.402 -176.3755
97.908112 92.400 -176.6152
98.617595 92.397 -176.8305
99.332219 92.395 -177.0540
100.052021 92.393 -177.2818
100.777039 92.391 -177.3813
101.507311 92.388 -177.5579
102.242875 92.386 -177.7936
102.983769 92.382 -178.0810
103.730032 92.379 -178.2824
104.481702 92.374 -178.5149
105.238820 92.370 -178.7247
106.001424 92.365 -178.8435
106.769554 92.361 -178.9897
107.543250 92.357 -179.2673
108.322553 92.355 -179.5252
109.107503 92.353 -179.6790
109.898141 92.351 -179.8645
110.694508 92.349 179.8456
111.496646 92.345 179.7210
112.304596 92.341 179.6046
113.118402 92.336 179.3228
113.938104 92.332 179.0880
114.763747 92.328 178.8913
115.595372 92.324 178.7400
116.433024 92.321 178.5493
117.276746 92.318 178.2982
118.126581 92.314 178.0576
118.982575 92.311 177.9658
119.844772 92.307 177.7690
120.713217 92.304 177.5410
121.587954 92.302 177.3431
122.469031 92.299 177.1983
123.356492 92.296 177.0699
124.250384 92.293 176.8672
125.150753 92.289 176.5360
126.057647 92.286 176.2562
126.971113 92.282 176.1712
127.891198 92.278 175.9795
128.817950 92.273 175.9825
129.751418 92.268 175.8335
130.691651 92.261 175.5542
131.638696 92.255 175.3638
132.592604 92.248 175.1233
133.553425 92.242 174.8850
134.521208 92.236 174.6332
135.496004 92.230 174.4631
136.477864 92.224 174.2504
137.466839 92.218 174.0472
138.462981 92.212 174.0018
139.466340 92.204 173.8306
140.476971 92.197 173.6356
141.494925 92.189 173.4839
142.520256 92.181 173.2860
143.553016 92.174 172.9856
144.593260 92.167 172.7222
145.641043 92.160 172.6848
146.696418 92.153 172.4727
147.759441 92.146 172.3503
148.830166 92.139 172.1669
149.908651 92.132 172.0498
150.994951 92.125 171.8806
152.089123 92.118 171.7881
153.191223 92.112 171.4536
154.301310 92.105 171.4193
155.419441 92.099 171.2321
156.545674 92.092 170.9749
157.680069 92.085 170.8170
158.822683 92.077 170.7214
159.973578 92.069 170.5927
161.132813 92.061 170.3355
162.300447 92.051 170.2967
163.476543 92.041 170.1176
164.661162 92.031 170.0258
165.854364 92.021 169.8635
167.056213 92.012 169.5626
168.266772 92.003 169.5270
169.486102 91.994 169.4366
170.714268 91.986 169.2089
171.951334 91.978 169.4322
173.197364 91.969 168.9753
174.452424 91.961 169.1059
175.716578 91.954 168.9926
176.989893 91.947 168.6411
178.272434 91.940 168.6764
179.564270 91.933 168.4467
180.865467 91.926 168.5260
182.176092 91.919 168.2265
183.496216 91.913 168.0836
184.825905 91.907 168.0025
186.165229 91.901 167.6714
187.514259 91.896 167.7517
188.873065 91.890 167.5961
190.241717 91.883 167.4526
191.620287 91.876 167.2323
193.008847 91.869 167.2026
194.407468 91.861 166.9404
195.816225 91.852 166.6434
197.235190 91.843 166.6295
198.664438 91.833 166.2747
200.104042 91.821 166.4633
201.554078 91.809 166.1833
203.014622 91.797 165.7680
204.485750 91.784 165.8599
205.967538 91.771 165.5090
207.460064 91.757 165.4626
208.963405 91.743 165.1557
210.477640 91.729 165.1658
212.002848 91.715 164.6982
213.539108 91.700 164.7146
215.086500 91.685 164.6572
216.645105 91.670 164.4369
218.215005 91.653 164.3097
219.796281 91.635 164.0097
221.389015 91.617 164.0347
222.993292 91.597 163.7302
224.609193 91.578 163.5954
226.236804 91.557 163.6046
227.876209 91.537 163.2872
229.527494 91.515 163.1727
231.190745 91.492 163.1847
232.866048 91.469 162.9411
234.553491 91.444 162.9176
236.253163 91.419 162.6647
237.965150 91.394 162.5155
239.689544 91.368 162.4270
241.426433 91.342 162.2997
243.175909 91.316 162.1898
244.938062 91.290 161.9991
246.712984 91.264 161.9349
248.500768 91.238 161.8528
250.301507 91.211 161.6917
252.115295 91.184 161.5569
253.942226 91.156 161.5225
255.782396 91.129 161.3721
257.635901 91.101 161.1918
259.502837 91.073 161.1595
261.383301 91.044 160.9496
263.277392 91.016 160.8768
265.185209 90.988 160.8470
267.106850 90.959 160.5292
269.042417 90.931 160.5349
270.992009 90.902 160.6184
272.955729 90.874 160.4582
274.933678 90.845 160.3325
276.925961 90.816 160.2960
278.932681 90.787 159.9041
280.953942 90.758 160.0119
282.989850 90.728 160.1015
285.040511 90.699 159.7751
287.106032 90.669 159.4807
289.186521 90.639 159.6684
291.282086 90.609 159.4902
293.392836 90.579 159.4408
295.518881 90.550 159.3829
297.660333 90.520 159.3676
299.817302 90.491 159.1438
301.989902 90.461 159.1227
304.178245 90.431 159.0215
306.382446 90.401 159.0595
308.602620 90.371 159.1263
310.838882 90.342 158.8882
313.091348 90.312 158.8041
315.360137 90.283 158.6941
317.645367 90.254 158.6306
319.947156 90.225 158.3911
322.265625 90.196 158.5486
324.600895 90.167 158.5321
326.953086 90.137 158.5697
329.322323 90.107 158.3537
331.708729 90.076 158.1702
334.112427 90.046 158.2163
336.533543 90.016 158.3042
338.972204 89.986 158.3473
341.428536 89.957 158.3555
343.902668 89.928 158.2423
346.394729 89.898 158.2594
348.904848 89.867 158.1697
351.433156 89.836 157.9763
353.979786 89.805 158.1326
356.544869 89.774 157.9486
359.128540 89.742 158.1057
361.730934 89.711 157.9366
364.352185 89.681 158.0461
366.992431 89.650 157.7374
369.651810 89.620 157.6216
372.330459 89.590 157.8220
375.028519 89.559 157.8301
377.746130 89.528 157.8233
380.483434 89.497 157.9265
383.240574 89.465 157.8347
386.017693 89.434 157.8689
388.814937 89.403 157.6675
391.632450 89.373 157.8391
394.470380 89.343 157.7191
397.328875 89.313 157.7328
400.208084 89.283 157.7991
403.108157 89.253 157.7336
406.029245 89.222 157.8388
408.971500 89.190 157.8428
411.935076 89.158 157.8148
414.920127 89.126 158.0717
417.926810 89.094 157.6023
420.955280 89.062 157.8980
424.005695 89.030 157.9939
427.078215 88.998 157.9601
430.173000 88.965 158.1779
433.290211 88.932 158.0042
436.430010 88.898 158.1580
439.592562 88.865 158.1525
442.778031 88.832 157.9001
445.986583 88.799 158.5761
449.218386 88.768 158.4216
452.473607 88.737 158.3347
455.752418 88.706 158.4094
459.054987 88.675 158.2891
462.381489 88.644 158.5178
465.732096 88.613 158.4551
469.106983 88.582 158.5168
472.506325 88.551 158.7560
475.930301 88.520 158.8950
479.379088 88.489 158.5441
482.852867 88.458 158.6092
486.351817 88.426 158.9406
489.876123 88.394 159.2266
493.425968 88.363 158.8354
497.001536 88.331 159.1748
500.603014 88.299 159.2580
504.230589 88.268 159.4058
507.884452 88.238 159.5504
511.564792 88.208 159.4937
515.271802 88.178 159.3221
519.005673 88.148 159.4952
522.766602 88.118 159.7531
526.554785 88.088 159.8809
530.370418 88.058 159.8571
534.213700 88.028 160.4850
538.084833 88.000 160.2611
541.984018 87.971 160.0531
545.911457 87.943 160.5389
549.867357 87.915 160.5510
553.851922 87.887 160.5959
557.865362 87.860 161.1075
561.907884 87.835 161.0786
565.979700 87.810 161.2574
570.081022 87.786 161.2842
574.212064 87.762 161.0662
578.373042 87.738 161.1097
582.564171 87.713 161.4784
586.785671 87.688 161.6977
591.037762 87.663 161.6212
595.320665 87.637 161.8801
599.634604 87.612 162.2641
603.979804 87.587 162.3820
608.356491 87.562 162.5712
612.764893 87.537 162.6824
617.205240 87.511 163.2694
621.677763 87.485 162.7887
626.182696 87.460 162.7852
630.720274 87.436 163.4260
635.290733 87.414 163.4399
639.894312 87.394 163.7242
644.531250 87.375 164.1255
649.201789 87.356 164.0265
653.906173 87.338 164.4594
658.644647 87.320 164.3301
663.417457 87.303 164.8897
668.224854 87.287 164.9253
673.067086 87.273 165.1085
677.944408 87.260 165.3106
682.857073 87.247 165.4229
687.805336 87.235 165.6663
692.789457 87.222 165.9777
697.809695 87.208 166.6933
702.866312 87.193 166.6343
707.959571 87.179 166.6349
713.089738 87.165 166.9882
718.257080 87.153 167.4946
723.461867 87.144 167.3575
728.704370 87.135 167.9894
733.984862 87.127 168.2269
739.303619 87.121 168.1906
744.660918 87.116 168.7269
750.057038 87.111 168.6786
755.492260 87.107 168.9715
760.966869 87.103 169.0395
766.481148 87.099 169.4059
772.035387 87.095 169.6931
777.629873 87.090 170.1878
783.264900 87.085 170.2888
788.940760 87.081 170.9985
794.657750 87.076 170.7514
800.416168 87.071 171.1553
806.216313 87.067 172.0112
812.058489 87.064 171.8535
817.943000 87.061 172.1420
823.870152 87.059 172.4380
829.840255 87.060 173.0686
835.853619 87.062 173.3209
841.910559 87.065 173.8272
848.011390 87.070 174.0671
854.156430 87.077 174.7432
860.346000 87.086 174.8732
866.580422 87.096 175.1165
872.860020 87.109 175.8579
879.185124 87.124 175.7645
885.556062 87.141 176.0217
891.973166 87.160 176.5183
898.436771 87.181 177.1493
904.947215 87.203 177.4072
911.504835 87.224 177.9009
918.109975 87.247 178.5679
924.762978 87.270 179.0848
931.464192 87.296 179.0717
938.213966 87.324 179.7816
945.012651 87.355 -179.6350
951.860602 87.388 -179.7103
958.758176 87.423 -179.2632
965.705733 87.461 -178.2564
972.703635 87.500 -177.8990
979.752246 87.541 -177.5550
986.851935 87.584 -177.2855
994.003071 87.629 -177.1104
1001.206027 87.676 -177.0581
1008.461179 87.726 -176.4777
1015.768904 87.778 -175.3249
1023.129584 87.832 -175.2879
1030.543603 87.888 -175.6404
1038.011347 87.946 -174.7853
1045.533205 88.007 -174.1636
1053.109569 88.069 -174.6827
1060.740836 88.134 -173.9197
1068.427401 88.201 -173.5634
1076.169666 88.269 -174.4471
1083.968035 88.338 -172.7266
1091.822915 88.408 -173.4498
1099.734713 88.481 -171.6901
1107.703844 88.555 -173.3273
1115.730723 88.630 -171.7269
1123.815768 88.706 -172.8308
1131.959400 88.782 -171.4702
1140.162045 88.859 -171.7324
1148.424129 88.935 -172.4241
1156.746083 89.011 -170.6344
1165.128342 89.086 -171.5745
1173.571343 89.156 -172.4126
1182.075524 89.220 -170.6266
1190.641331 89.271 -169.3049
1199.269209 89.301 -170.7262
1207.959608 89.300 -172.5231
1216.712981 89.264 -172.9006
1225.529785 89.199 -172.5181
1234.410479 89.113 -170.6274
1243.355526 89.015 -168.6273
1252.365393 88.913 -167.0784
1261.440549 88.810 -165.3403
1270.581467 88.715 -164.2074
1279.788624 88.633 -163.3897
1289.062500 88.574 -163.8691
1298.403578 88.542 -165.8148
1307.812346 88.534 -166.5126
1317.289293 88.541 -165.1608
1326.834914 88.555 -163.9225
1336.449707 88.570 -164.6488
1346.134173 88.584 -164.9808
1355.888816 88.595 -163.5745
1365.714145 88.603 -164.9795
1375.610673 88.609 -163.5746
1385.578915 88.612 -164.1266
1395.619391 88.613 -162.5630
1405.732624 88.613 -163.3083
1415.919142 88.613 -162.3943
1426.179476 88.613 -162.2849
1436.514160 88.614 -162.6331
1446.923734 88.616 -162.1655
1457.408740 88.620 -161.4561
1467.969724 88.625 -160.9526
1478.607238 88.630 -161.1956
1489.321836 88.637 -160.7876
1500.114076 88.643 -160.1628
1510.984521 88.650 -160.1673
1521.933737 88.653 -159.8237
1532.962297 88.654 -159.5250
1544.070773 88.649 -159.1907
1555.259747 88.640 -159.3738
1566.529800 88.627 -158.9395
1577.881521 88.611 -158.3394
1589.315501 88.596 -157.5081
1600.832336 88.584 -156.7400
1612.432627 88.577 -156.0892
1624.116978 88.580 -155.7876
1635.886000 88.592 -155.6407
1647.740304 88.616 -155.2093
1659.680509 88.651 -155.1570
1671.707238 88.695 -155.3286
1683.821118 88.748 -154.8665
1696.022780 88.806 -154.8202
1708.312860 88.869 -154.8974
1720.692000 88.935 -154.4592
1733.160843 89.004 -154.6098
1745.720041 89.075 -154.0569
1758.370248 89.148 -154.2872
1771.112124 89.222 -154.1924
1783.946332 89.298 -154.0045
1796.873543 89.375 -153.8611
1809.894429 89.454 -153.7565
1823.009670 89.533 -153.7739
1836.219950 89.614 -153.7465
1849.525956 89.696 -153.8380
1862.928384 89.779 -153.8913
1876.427931 89.862 -154.0097
1890.025301 89.945 -153.9280
1903.721204 90.029 -153.8801
1917.516352 90.113 -154.1427
1931.411466 90.196 -154.2702
1945.407270 90.279 -154.3512
1959.504493 90.362 -154.5613
1973.703870 90.443 -154.7337
1988.006142 90.524 -154.9652
2002.412054 90.604 -155.1749
2016.922357 90.682 -155.4793
2031.537808 90.758 -155.7298
2046.259169 90.832 -156.0527
2061.087206 90.904 -156.3594
2076.022694 90.974 -156.7085
2091.066410 91.042 -157.0948
2106.219139 91.106 -157.4570
2121.481671 91.168 -157.8498
2136.854802 91.227 -158.2705
2152.339333 91.282 -158.7198
2167.936071 91.335 -159.1544
2183.645829 91.384 -159.6066
2199.469427 91.429 -160.0698
2215.407689 91.470 -160.5578
2231.461446 91.508 -161.0330
2247.631536 91.542 -161.5186
2263.918800 91.572 -162.0211
2280.324089 91.599 -162.5139
2296.848258 91.621 -163.0229
2313.492167 91.640 -163.5356
2330.256685 91.654 -164.0403
2347.142685 91.664 -164.5445
2364.151049 91.671 -165.0352
2381.282662 91.673 -165.5403
2398.538418 91.672 -166.0308
2415.919216 91.666 -166.5129
2433.425962 91.657 -166.9933
2451.059570 91.644 -167.4555
2468.820958 91.626 -167.9089
2486.711052 91.605 -168.3621
2504.730786 91.579 -168.7713
2522.881098 91.548 -169.1810
2541.162934 91.514 -169.5436
2559.577248 91.477 -169.8880
2578.125000 91.436 -170.2054
2596.807157 91.392 -170.4807
2615.624692 91.347 -170.7165
2634.578586 91.302 -170.8956
2653.669829 91.257 -171.0303
2672.899414 91.214 -171.1163
2692.268345 91.176 -171.1580
2711.777632 91.143 -171.1661
2731.428290 91.118 -171.1451
2751.221345 91.100 -171.1288
2771.157829 91.090 -171.0929
2791.238781 91.087 -171.1013
2811.465248 91.090 -171.1371
2831.838284 91.095 -171.2421
2852.358952 91.101 -171.3620
2873.028321 91.105 -171.5461
2893.847468 91.105 -171.7720
2914.817480 91.100 -172.0184
2935.939449 91.090 -172.2829
2957.214476 91.073 -172.5461
2978.643672 91.050 -172.8031
3000.228152 91.022 -173.0679
3021.969041 90.988 -173.3187
3043.867475 90.950 -173.5401
3065.924593 90.909 -173.7436
3088.141547 90.865 -173.9013
3110.519493 90.819 -174.0402
3133.059600 90.771 -174.1530
3155.763041 90.722 -174.2429
3178.631001 90.674 -174.2832
3201.664672 90.625 -174.3302
3224.865254 90.577 -174.3426
3248.233957 90.529 -174.3333
3271.771999 90.482 -174.3043
3295.480608 90.435 -174.2616
3319.361019 90.388 -174.1917
3343.414477 90.342 -174.1241
3367.642236 90.296 -174.0369
3392.045560 90.250 -173.9176
3416.625721 90.205 -173.7895
3441.383999 90.160 -173.6438
3466.321686 90.115 -173.4765
3491.440082 90.071 -173.2900
3516.740496 90.027 -173.0813
3542.224247 89.984 -172.8611
3567.892664 89.943 -172.6043
3593.747085 89.902 -172.3296
3619.788858 89.863 -172.0329
3646.019340 89.826 -171.7156
3672.439900 89.792 -171.3782
3699.051913 89.759 -171.0194
3725.856768 89.730 -170.6230
3752.855862 89.703 -170.2158
3780.050603 89.679 -169.7758
3807.442408 89.659 -169.3437
3835.032705 89.643 -168.8719
3862.822933 89.631 -168.3992
3890.814540 89.623 -167.9113
3919.008986 89.619 -167.4054
3947.407741 89.620 -166.8885
3976.012284 89.625 -166.3580
4004.824108 89.635 -165.8249
4033.844715 89.649 -165.2941
4063.075616 89.668 -164.7648
4092.518337 89.691 -164.2099
4122.174412 89.719 -163.6695
4152.045387 89.751 -163.1086
4182.132820 89.788 -162.5745
4212.438278 89.830 -162.0148
4242.963342 89.876 -161.4662
4273.709604 89.928 -160.9021
4304.678665 89.985 -160.3619
4335.872141 90.047 -159.8005
4367.291658 90.116 -159.2701
4398.938854 90.190 -158.7244
4430.815378 90.270 -158.1917
4462.922893 90.358 -157.6606
4495.263072 90.451 -157.1422
4527.837601 90.552 -156.6337
4560.648179 90.661 -156.1438
4593.696515 90.776 -155.6663
4626.984334 90.900 -155.2202
4660.513370 91.031 -154.7801
4694.285371 91.170 -154.3757
4728.302098 91.316 -154.0233
4762.565324 91.470 -153.7168
4797.076835 91.629 -153.4157
4831.838432 91.793 -153.1896
4866.851925 91.958 -153.0193
4902.119140 92.121 -152.9362
4937.641916 92.280 -152.8967
4973.422105 92.430 -152.9419
5009.461572 92.571 -153.0711
5045.762195 92.701 -153.2991
5082.325868 92.820 -153.6174
5119.154496 92.930 -154.0566
5156.250000 93.030 -154.6191
5193.614313 93.123 -155.3323
5231.249383 93.208 -156.2046
5269.157173 93.286 -157.2358
5307.339658 93.356 -158.4530
5345.798829 93.420 -159.8650
5384.536691 93.476 -161.4885
5423.555263 93.525 -163.3347
5462.856580 93.566 -165.3817
5502.442691 93.599 -167.6376
5542.315659 93.625 -170.0956
5582.477563 93.643 -172.7363
5622.930497 93.652 -175.5186
5663.676569 93.654 -178.4041
5704.717904 93.648 178.6450
5746.056642 93.633 175.6928
5787.694937 93.610 172.7783
5829.634960 93.578 169.9699
5871.878898 93.537 167.2875
5914.428953 93.486 164.7907
5957.287343 93.424 162.5363
6000.456303 93.349 160.4776
6043.938083 93.261 158.6787
6087.734950 93.156 157.1261
6131.849187 93.033 155.8474
6176.283094 92.888 154.7860
6221.038987 92.719 153.9621
6266.119200 92.524 153.3775
6311.526083 92.300 153.0224
6357.262002 92.049 152.8308
6403.329344 91.775 152.8430
6449.730508 91.487 153.0314
6496.467914 91.192 153.4063
6543.543998 90.897 153.9103
6590.961215 90.609 154.5529
6638.722037 90.334 155.3453
6686.828954 90.075 156.2386
6735.284473 89.834 157.2363
6784.091120 89.612 158.3106
6833.251441 89.409 159.4473
6882.767998 89.225 160.6424
6932.643372 89.059 161.8901
6982.880164 88.912 163.1880
7033.480992 88.784 164.5220
7084.448495 88.675 165.8887
7135.785329 88.586 167.2838
7187.494171 88.516 168.7138
7239.577717 88.465 170.1421
7292.038681 88.434 171.5968
7344.879799 88.423 173.0397
7398.103826 88.433 174.5215
7451.713536 88.465 175.9676
7505.711724 88.520 177.4303
7560.101205 88.600 178.8572
7614.884815 88.707 -179.7262
7670.065409 88.841 -178.3539
7725.645865 89.005 -177.0388
7781.629080 89.201 -175.7909
7838.017972 89.430 -174.6365
7894.815481 89.692 -173.6002
7952.024569 89.987 -172.7548
8009.648217 90.314 -172.0985
8067.689429 90.665 -171.6962
8126.151233 91.034 -171.5914
8185.036674 91.408 -171.8449
8244.348824 91.772 -172.5814
8304.090774 92.109 -173.8009
8364.265639 92.405 -175.6235
8424.876556 92.651 -178.1035
8485.926684 92.843 178.6213
8547.419207 92.983 174.5539
8609.357330 93.074 169.6205
8671.744282 93.117 163.8878
8734.583316 93.115 157.5603
8797.877707 93.067 150.8753
8861.630756 92.967 144.2741
8925.845785 92.806 138.0165
8990.526143 92.571 132.4308
9055.675202 92.247 127.6764
9121.296357 91.822 123.8130
9187.393031 91.294 120.8244
9253.968668 90.670 118.5878
9321.026740 89.971 117.0373
9388.570742 89.217 116.1350
9456.604196 88.434 115.7575
9525.130648 87.642 115.8777
9594.153671 86.857 116.4398
9663.676863 86.092 117.4172
9733.703850 85.357 118.7064
9804.238280 84.655 120.3014
9875.283832 83.989 122.1426
9946.844210 83.361 124.1980
10018.923143 82.769 126.3987
10091.524390 82.213 128.7776
10164.651736 81.690 131.3087
10238.308993 81.199 133.9152
10312.500000 80.737 136.6704
10387.228626 80.304 139.5081
10462.498767 79.897 142.4537
10538.314345 79.516 145.4990
10614.679315 79.159 148.6218
10691.597657 78.826 151.8361
10769.073381 78.515 155.0962
10847.110526 78.226 158.5407
10925.713161 77.958 162.0375
11004.885382 77.713 165.6777
11084.631318 77.491 169.4462
11164.955126 77.293 173.3933
11245.860993 77.123 177.5235
11327.353138 76.987 -178.0958
11409.435808 76.893 -173.4203
11492.113283 76.853 -168.4139
11575.389873 76.888 -163.0065
11659.269920 77.021 -157.1802
11743.757796 77.281 -150.9447
11828.857906 77.696 -144.4686
11914.574686 78.286 -137.9175
12000.912606 79.051 -131.7249
12087.876166 79.971 -126.2642
12175.469900 81.008 -121.9030
12263.698373 82.118 -118.8141
12352.566187 83.256 -117.0653
12442.077974 84.388 -116.6011
12532.238400 85.490 -117.2218
12623.052165 86.549 -118.8500
12714.524005 87.558 -121.3193
12806.658687 88.510 -124.5180
12899.461015 89.396 -128.5128
12992.935827 90.200 -133.2819
13087.087996 90.896 -139.0117
13181.922430 91.457 -145.7787
13277.444074 91.855 -153.5899
13373.657907 92.071 -162.4947
13470.568945 92.093 -172.0389
13568.182241 91.915 178.3135
13666.502883 91.535 169.3010
13765.535996 90.956 161.4972
13865.286744 90.194 155.1177
13965.760328 89.278 150.3329
14066.961984 88.247 146.8831
14168.896989 87.147 144.7453
14271.570658 86.020 143.8467
14374.988342 84.909 143.9662
14479.155433 83.848 145.0001
14584.077362 82.864 146.7892
14689.759598 81.974 149.1216
14796.207652 81.190 151.9409
14903.427072 80.513 155.1115
15011.423448 79.943 158.4896
15120.202410 79.476 162.0503
15229.769630 79.109 165.6508
15340.130819 78.839 169.3237
15451.291730 78.666 173.0269
15563.258160 78.592 176.6461
15676.035944 78.619 -179.8451
15789.630962 78.752 -176.6169
15904.049137 78.995 -173.6273
16019.296433 79.349 -171.1717
16135.378859 79.805 -169.3936
16252.302465 80.347 -168.4620
16370.073348 80.946 -168.4938
16488.697648 81.566 -169.7037
16608.181548 82.157 -172.0921
16728.531278 82.668 -175.6784
16849.753112 83.048 179.6202
16971.853368 83.248 174.0657
17094.838414 83.232 168.0442
17218.714660 82.981 161.8774
17343.488565 82.497 155.9382
17469.166632 81.800 150.6390
17595.755415 80.923 146.3339
17723.261512 79.905 143.1012
17851.691571 78.792 141.1079
17981.052287 77.627 140.3489
18111.350404 76.453 140.7710
18242.592715 75.313 142.3394
18374.786062 74.242 144.8184
18507.937336 73.275 148.1320
18642.053479 72.439 151.8754
18777.141484 71.753 155.9676
18913.208391 71.227 159.9856
19050.261296 70.860 163.7674
19188.307342 70.637 166.9762
19327.353727 70.529 169.3720
19467.407699 70.502 170.9837
19608.476560 70.516 171.7049
19750.567664 70.542 171.9237
19893.688419 70.562 171.8422
20037.846286 70.572 171.9868
