* Measurement data measured by REW V5.20.9
* Source: Головной телефон (TX 384Khz HiFi Audio), MICROPHONE (Общая громкость), R, volume: 0,250. Timing signal peak level 0,0 dBFS, measurement signal peak level zero
* Format: 256k Log Swept Sine, 1 sweep at -12,0 dBFS using an acoustic timing reference
* Dated: 11.09.2022 12:36:41
* REW Settings:
*  C-weighting compensation: Off
*  Target level: 75.0 dB
* Note: 
* Measurement: D13
* Smoothing: 1/12 octave
* Frequency Step: 96 ppo
* Start Frequency: 20.141602 Hz
*
* Freq(Hz) SPL(dB) Phase(degrees)
20.141602 134.129 -157.7270
20.287556 134.128 -157.8560
20.434568 134.128 -158.0467
20.582645 134.127 -158.2813
20.731796 134.125 -158.5451
20.882027 134.124 -158.8272
21.033346 134.122 -159.1210
21.185763 134.120 -159.4223
21.339284 134.119 -159.7290
21.493917 134.117 -160.0398
21.649671 134.116 -160.3539
21.806553 134.115 -160.6706
21.964572 134.114 -160.9892
22.123737 134.113 -161.3091
22.284054 134.113 -161.6295
22.445534 134.112 -161.9495
22.608183 134.111 -162.2684
22.772012 134.110 -162.5855
22.937027 134.109 -162.9005
23.103238 134.107 -163.2131
23.270654 134.106 -163.5234
23.439282 134.105 -163.8315
23.609133 134.104 -164.1381
23.780215 134.102 -164.4436
23.952536 134.102 -164.7487
24.126106 134.101 -165.0541
24.300934 134.100 -165.3602
24.477028 134.100 -165.6672
24.654399 134.100 -165.9752
24.833055 134.100 -166.2837
25.013005 134.100 -166.5921
25.194260 134.100 -166.8995
25.376828 134.099 -167.2048
25.560719 134.098 -167.5070
25.745942 134.097 -167.8050
25.932508 134.096 -168.0981
26.120426 134.095 -168.3858
26.309705 134.093 -168.6682
26.500356 134.091 -168.9458
26.692388 134.089 -169.2193
26.885812 134.086 -169.4900
27.080638 134.083 -169.7589
27.276876 134.080 -170.0274
27.474535 134.077 -170.2964
27.673627 134.073 -170.5668
27.874161 134.068 -170.8392
28.076149 134.063 -171.1135
28.279600 134.058 -171.3898
28.484526 134.053 -171.6677
28.690937 134.048 -171.9469
28.898843 134.043 -172.2267
29.108256 134.038 -172.5069
29.319186 134.033 -172.7868
29.531645 134.029 -173.0662
29.745644 134.025 -173.3446
29.961193 134.020 -173.6216
30.178304 134.016 -173.8969
30.396989 134.011 -174.1700
30.617258 134.006 -174.4407
30.839123 134.001 -174.7090
31.062596 133.995 -174.9749
31.287688 133.988 -175.2387
31.514412 133.981 -175.5008
31.742778 133.974 -175.7618
31.972800 133.966 -176.0222
32.204488 133.958 -176.2823
32.437855 133.950 -176.5425
32.672913 133.942 -176.8028
32.909674 133.934 -177.0631
33.148151 133.925 -177.3232
33.388356 133.917 -177.5827
33.630302 133.909 -177.8414
33.874001 133.901 -178.0989
34.119466 133.892 -178.3550
34.366710 133.884 -178.6096
34.615745 133.875 -178.8625
34.866585 133.866 -179.1137
35.119243 133.857 -179.3632
35.373731 133.847 -179.6112
35.630064 133.837 -179.8578
35.888254 133.827 179.8965
36.148315 133.816 179.6517
36.410261 133.806 179.4073
36.674104 133.795 179.1635
36.939860 133.783 178.9203
37.207542 133.772 178.6780
37.477163 133.760 178.4368
37.748738 133.748 178.1971
38.022281 133.736 177.9590
38.297806 133.723 177.7225
38.575327 133.711 177.4874
38.854860 133.698 177.2534
39.136419 133.685 177.0201
39.420017 133.672 176.7875
39.705671 133.658 176.5554
39.993395 133.645 176.3240
40.283203 133.631 176.0935
40.575112 133.618 175.8640
40.869136 133.604 175.6356
41.165290 133.590 175.4082
41.463591 133.577 175.1816
41.764053 133.563 174.9557
42.066693 133.549 174.7300
42.371525 133.535 174.5046
42.678567 133.520 174.2792
42.987834 133.506 174.0540
43.299341 133.491 173.8289
43.613106 133.475 173.6040
43.929145 133.460 173.3795
44.247473 133.444 173.1552
44.568109 133.429 172.9313
44.891068 133.413 172.7079
45.216367 133.396 172.4852
45.544023 133.380 172.2635
45.874054 133.363 172.0429
46.206476 133.345 171.8233
46.541307 133.328 171.6045
46.878565 133.310 171.3860
47.218266 133.292 171.1674
47.560429 133.274 170.9485
47.905072 133.255 170.7294
48.252212 133.236 170.5107
48.601867 133.217 170.2932
48.954056 133.198 170.0778
49.308798 133.179 169.8650
49.666109 133.160 169.6548
50.026010 133.141 169.4469
50.388520 133.122 169.2410
50.753656 133.104 169.0365
51.121437 133.085 168.8334
51.491884 133.066 168.6317
51.865016 133.046 168.4313
52.240851 133.026 168.2321
52.619410 133.005 168.0339
53.000712 132.985 167.8361
53.384777 132.964 167.6383
53.771625 132.943 167.4402
54.161276 132.922 167.2417
54.553751 132.900 167.0431
54.949070 132.879 166.8449
55.347254 132.857 166.6479
55.748323 132.835 166.4527
56.152298 132.813 166.2595
56.559201 132.791 166.0683
56.969052 132.768 165.8788
57.381873 132.746 165.6909
57.797686 132.723 165.5043
58.216512 132.700 165.3192
58.638373 132.677 165.1357
59.063291 132.654 164.9534
59.491288 132.631 164.7714
59.922386 132.608 164.5888
60.356608 132.584 164.4048
60.793977 132.561 164.2198
61.234515 132.536 164.0347
61.678246 132.512 163.8510
62.125192 132.487 163.6700
62.575377 132.461 163.4917
63.028824 132.436 163.3160
63.485557 132.410 163.1422
63.945599 132.385 162.9695
64.408975 132.359 162.7979
64.875709 132.334 162.6273
65.345825 132.308 162.4577
65.819348 132.282 162.2894
66.296302 132.256 162.1224
66.776713 132.230 161.9570
67.260604 132.203 161.7931
67.748002 132.176 161.6307
68.238932 132.149 161.4697
68.733420 132.122 161.3097
69.231490 132.095 161.1506
69.733170 132.067 160.9920
70.238485 132.040 160.8340
70.747463 132.012 160.6768
71.260128 131.984 160.5207
71.776508 131.955 160.3658
72.296630 131.927 160.2124
72.820521 131.898 160.0605
73.348209 131.870 159.9102
73.879720 131.841 159.7614
74.415083 131.812 159.6143
74.954326 131.783 159.4689
75.497475 131.753 159.3250
76.044561 131.723 159.1827
76.595612 131.694 159.0421
77.150655 131.664 158.9032
77.709720 131.633 158.7659
78.272837 131.603 158.6300
78.840034 131.572 158.4956
79.411342 131.542 158.3625
79.986789 131.511 158.2305
80.566406 131.479 158.0998
81.150224 131.448 157.9702
81.738272 131.417 157.8420
82.330581 131.385 157.7153
82.927182 131.353 157.5901
83.528107 131.321 157.4669
84.133386 131.289 157.3453
84.743051 131.257 157.2256
85.357134 131.224 157.1075
85.975667 131.191 156.9913
86.598682 131.158 156.8772
87.226212 131.125 156.7653
87.858289 131.092 156.6559
88.494946 131.058 156.5488
89.136217 131.025 156.4441
89.782135 130.992 156.3415
90.432733 130.958 156.2408
91.088046 130.925 156.1419
91.748108 130.891 156.0446
92.412952 130.857 155.9491
93.082615 130.823 155.8553
93.757130 130.789 155.7632
94.436533 130.755 155.6727
95.120859 130.722 155.5832
95.810144 130.688 155.4944
96.504423 130.653 155.4062
97.203734 130.619 155.3188
97.908112 130.585 155.2325
98.617595 130.550 155.1476
99.332219 130.516 155.0646
100.052021 130.481 154.9839
100.777039 130.445 154.9058
101.507311 130.410 154.8301
102.242875 130.374 154.7568
102.983769 130.339 154.6855
103.730032 130.303 154.6160
104.481702 130.267 154.5485
105.238820 130.232 154.4833
106.001424 130.196 154.4209
106.769554 130.159 154.3616
107.543250 130.123 154.3056
108.322553 130.087 154.2527
109.107503 130.051 154.2027
109.898141 130.014 154.1557
110.694508 129.978 154.1117
111.496646 129.942 154.0706
112.304596 129.906 154.0321
113.118402 129.870 153.9962
113.938104 129.834 153.9624
114.763747 129.798 153.9308
115.595372 129.763 153.9012
116.433024 129.728 153.8735
117.276746 129.693 153.8478
118.126581 129.659 153.8236
118.982575 129.625 153.8002
119.844772 129.590 153.7766
120.713217 129.556 153.7516
121.587954 129.523 153.7244
122.469031 129.489 153.6942
123.356492 129.455 153.6611
124.250384 129.421 153.6257
125.150753 129.388 153.5891
126.057647 129.354 153.5521
126.971113 129.320 153.5151
127.891198 129.285 153.4785
128.817950 129.250 153.4427
129.751418 129.215 153.4081
130.691651 129.179 153.3749
131.638696 129.143 153.3434
132.592604 129.106 153.3136
133.553425 129.070 153.2858
134.521208 129.032 153.2605
135.496004 128.995 153.2380
136.477864 128.957 153.2186
137.466839 128.919 153.2022
138.462981 128.880 153.1890
139.466340 128.841 153.1789
140.476971 128.802 153.1720
141.494925 128.763 153.1685
142.520256 128.724 153.1688
143.553016 128.684 153.1728
144.593260 128.644 153.1805
145.641043 128.604 153.1916
146.696418 128.563 153.2056
147.759441 128.522 153.2227
148.830166 128.480 153.2432
149.908651 128.439 153.2679
150.994951 128.397 153.2977
152.089123 128.355 153.3332
153.191223 128.313 153.3746
154.301310 128.270 153.4220
155.419441 128.227 153.4753
156.545674 128.184 153.5349
157.680069 128.141 153.6017
158.822683 128.097 153.6770
159.973578 128.054 153.7620
161.132813 128.011 153.8577
162.300447 127.969 153.9648
163.476543 127.927 154.0836
164.661162 127.886 154.2144
165.854364 127.846 154.3571
167.056213 127.807 154.5109
168.266772 127.771 154.6749
169.486102 127.737 154.8470
170.714268 127.705 155.0251
171.951334 127.677 155.2059
173.197364 127.651 155.3858
174.452424 127.629 155.5609
175.716578 127.609 155.7272
176.989893 127.592 155.8813
178.272434 127.576 156.0203
179.564270 127.563 156.1419
180.865467 127.550 156.2448
182.176092 127.537 156.3286
183.496216 127.524 156.3939
184.825905 127.511 156.4423
186.165229 127.496 156.4758
187.514259 127.479 156.4969
188.873065 127.461 156.5084
190.241717 127.442 156.5128
191.620287 127.420 156.5124
193.008847 127.397 156.5093
194.407468 127.372 156.5053
195.816225 127.346 156.5020
197.235190 127.318 156.5005
198.664438 127.289 156.5023
200.104042 127.258 156.5082
201.554078 127.227 156.5189
203.014622 127.194 156.5350
204.485750 127.161 156.5567
205.967538 127.127 156.5844
207.460064 127.092 156.6182
208.963405 127.057 156.6580
210.477640 127.022 156.7036
212.002848 126.987 156.7549
213.539108 126.951 156.8116
215.086500 126.916 156.8734
216.645105 126.880 156.9398
218.215005 126.844 157.0106
219.796281 126.809 157.0854
221.389015 126.773 157.1641
222.993292 126.738 157.2468
224.609193 126.703 157.3335
226.236804 126.668 157.4241
227.876209 126.633 157.5187
229.527494 126.598 157.6170
231.190745 126.563 157.7191
232.866048 126.529 157.8247
234.553491 126.495 157.9340
236.253163 126.460 158.0467
237.965150 126.426 158.1625
239.689544 126.392 158.2811
241.426433 126.359 158.4023
243.175909 126.325 158.5257
244.938062 126.292 158.6513
246.712984 126.259 158.7791
248.500768 126.226 158.9089
250.301507 126.193 159.0410
252.115295 126.161 159.1753
253.942226 126.128 159.3120
255.782396 126.096 159.4510
257.635901 126.065 159.5924
259.502837 126.033 159.7363
261.383301 126.001 159.8829
263.277392 125.970 160.0321
265.185209 125.939 160.1839
267.106850 125.908 160.3382
269.042417 125.877 160.4951
270.992009 125.847 160.6543
272.955729 125.816 160.8158
274.933678 125.786 160.9796
276.925961 125.756 161.1457
278.932681 125.727 161.3141
280.953942 125.697 161.4852
282.989850 125.668 161.6591
285.040511 125.640 161.8358
287.106032 125.611 162.0151
289.186521 125.583 162.1968
291.282086 125.556 162.3808
293.392836 125.529 162.5669
295.518881 125.503 162.7551
297.660333 125.477 162.9453
299.817302 125.451 163.1370
301.989902 125.427 163.3297
304.178245 125.402 163.5230
306.382446 125.379 163.7162
308.602620 125.356 163.9091
310.838882 125.333 164.1009
313.091348 125.311 164.2914
315.360137 125.289 164.4803
317.645367 125.267 164.6672
319.947156 125.245 164.8524
322.265625 125.224 165.0358
324.600895 125.202 165.2180
326.953086 125.181 165.3992
329.322323 125.159 165.5803
331.708729 125.137 165.7617
334.112427 125.116 165.9438
336.533543 125.094 166.1271
338.972204 125.072 166.3119
341.428536 125.050 166.4984
343.902668 125.027 166.6869
346.394729 125.005 166.8774
348.904848 124.983 167.0703
351.433156 124.961 167.2653
353.979786 124.939 167.4626
356.544869 124.917 167.6621
359.128540 124.895 167.8638
361.730934 124.873 168.0676
364.352185 124.852 168.2735
366.992431 124.830 168.4813
369.651810 124.809 168.6909
372.330459 124.788 168.9022
375.028519 124.768 169.1153
377.746130 124.747 169.3299
380.483434 124.727 169.5461
383.240574 124.707 169.7639
386.017693 124.688 169.9834
388.814937 124.668 170.2047
391.632450 124.649 170.4276
394.470380 124.630 170.6521
397.328875 124.612 170.8782
400.208084 124.593 171.1060
403.108157 124.575 171.3354
406.029245 124.557 171.5666
408.971500 124.539 171.7993
411.935076 124.522 172.0337
414.920127 124.505 172.2695
417.926810 124.488 172.5068
420.955280 124.471 172.7455
424.005695 124.455 172.9855
427.078215 124.438 173.2267
430.173000 124.422 173.4694
433.290211 124.407 173.7133
436.430010 124.391 173.9584
439.592562 124.376 174.2049
442.778031 124.361 174.4527
445.986583 124.346 174.7021
449.218386 124.332 174.9533
452.473607 124.317 175.2060
455.752418 124.304 175.4601
459.054987 124.290 175.7153
462.381489 124.277 175.9717
465.732096 124.264 176.2292
469.106983 124.251 176.4880
472.506325 124.238 176.7483
475.930301 124.226 177.0101
479.379088 124.214 177.2733
482.852867 124.202 177.5379
486.351817 124.191 177.8041
489.876123 124.180 178.0718
493.425968 124.169 178.3410
497.001536 124.158 178.6117
500.603014 124.148 178.8839
504.230589 124.137 179.1577
507.884452 124.127 179.4332
511.564792 124.118 179.7104
515.271802 124.108 179.9894
519.005673 124.099 -179.7298
522.766602 124.090 -179.4476
526.554785 124.081 -179.1638
530.370418 124.073 -178.8788
534.213700 124.065 -178.5923
538.084833 124.058 -178.3045
541.984018 124.050 -178.0152
545.911457 124.044 -177.7243
549.867357 124.037 -177.4317
553.851922 124.031 -177.1375
557.865362 124.025 -176.8416
561.907884 124.019 -176.5442
565.979700 124.014 -176.2451
570.081022 124.009 -175.9441
574.212064 124.005 -175.6410
578.373042 124.000 -175.3360
582.564171 123.996 -175.0290
586.785671 123.992 -174.7202
591.037762 123.989 -174.4096
595.320665 123.986 -174.0971
599.634604 123.983 -173.7828
603.979804 123.981 -173.4665
608.356491 123.979 -173.1482
612.764893 123.977 -172.8279
617.205240 123.976 -172.5055
621.677763 123.975 -172.1811
626.182696 123.975 -171.8547
630.720274 123.975 -171.5263
635.290733 123.975 -171.1957
639.894312 123.976 -170.8630
644.531250 123.978 -170.5281
649.201789 123.980 -170.1910
653.906173 123.982 -169.8520
658.644647 123.984 -169.5108
663.417457 123.988 -169.1674
668.224854 123.991 -168.8217
673.067086 123.995 -168.4735
677.944408 124.000 -168.1229
682.857073 124.005 -167.7699
687.805336 124.010 -167.4146
692.789457 124.016 -167.0567
697.809695 124.023 -166.6964
702.866312 124.030 -166.3333
707.959571 124.037 -165.9676
713.089738 124.045 -165.5992
718.257080 124.054 -165.2282
723.461867 124.063 -164.8548
728.704370 124.073 -164.4792
733.984862 124.084 -164.1011
739.303619 124.095 -163.7203
744.660918 124.106 -163.3365
750.057038 124.118 -162.9493
755.492260 124.131 -162.5587
760.966869 124.144 -162.1642
766.481148 124.157 -161.7655
772.035387 124.171 -161.3616
777.629873 124.184 -160.9510
783.264900 124.198 -160.5315
788.940760 124.213 -160.0998
794.657750 124.227 -159.6518
800.416168 124.243 -159.1823
806.216313 124.261 -158.6857
812.058489 124.282 -158.1579
817.943000 124.310 -157.5995
823.870152 124.347 -157.0210
829.840255 124.394 -156.4463
835.853619 124.452 -155.9111
841.910559 124.517 -155.4507
848.011390 124.583 -155.0812
854.156430 124.644 -154.7891
860.346000 124.697 -154.5406
866.580422 124.742 -154.3006
872.860020 124.780 -154.0449
879.185124 124.815 -153.7626
885.556062 124.848 -153.4524
891.973166 124.882 -153.1183
898.436771 124.916 -152.7658
904.947215 124.952 -152.4000
911.504835 124.990 -152.0247
918.109975 125.029 -151.6423
924.762978 125.070 -151.2531
931.464192 125.112 -150.8563
938.213966 125.156 -150.4491
945.012651 125.202 -150.0282
951.860602 125.250 -149.5909
958.758176 125.304 -149.1373
965.705733 125.363 -148.6739
972.703635 125.430 -148.2157
979.752246 125.504 -147.7840
986.851935 125.582 -147.3984
994.003071 125.663 -147.0671
1001.206027 125.743 -146.7836
1008.461179 125.819 -146.5331
1015.768904 125.893 -146.2999
1023.129584 125.963 -146.0733
1030.543603 126.033 -145.8474
1038.011347 126.101 -145.6207
1045.533205 126.170 -145.3940
1053.109569 126.239 -145.1688
1060.740836 126.309 -144.9470
1068.427401 126.380 -144.7300
1076.169666 126.452 -144.5191
1083.968035 126.524 -144.3151
1091.822915 126.597 -144.1187
1099.734713 126.671 -143.9303
1107.703844 126.745 -143.7504
1115.730723 126.819 -143.5791
1123.815768 126.894 -143.4166
1131.959400 126.969 -143.2627
1140.162045 127.044 -143.1171
1148.424129 127.119 -142.9797
1156.746083 127.194 -142.8502
1165.128342 127.269 -142.7284
1173.571343 127.344 -142.6140
1182.075524 127.419 -142.5068
1190.641331 127.494 -142.4067
1199.269209 127.568 -142.3134
1207.959608 127.643 -142.2267
1216.712981 127.718 -142.1464
1225.529785 127.792 -142.0721
1234.410479 127.867 -142.0035
1243.355526 127.942 -141.9403
1252.365393 128.016 -141.8823
1261.440549 128.091 -141.8293
1270.581467 128.166 -141.7811
1279.788624 128.241 -141.7376
1289.062500 128.315 -141.6987
1298.403578 128.391 -141.6644
1307.812346 128.466 -141.6346
1317.289293 128.541 -141.6090
1326.834914 128.617 -141.5877
1336.449707 128.692 -141.5708
1346.134173 128.768 -141.5583
1355.888816 128.845 -141.5504
1365.714145 128.921 -141.5472
1375.610673 128.998 -141.5488
1385.578915 129.076 -141.5553
1395.619391 129.154 -141.5671
1405.732624 129.232 -141.5843
1415.919142 129.311 -141.6073
1426.179476 129.391 -141.6363
1436.514160 129.471 -141.6716
1446.923734 129.552 -141.7134
1457.408740 129.634 -141.7621
1467.969724 129.716 -141.8182
1478.607238 129.799 -141.8820
1489.321836 129.883 -141.9541
1500.114076 129.968 -142.0350
1510.984521 130.053 -142.1251
1521.933737 130.139 -142.2249
1532.962297 130.226 -142.3349
1544.070773 130.313 -142.4558
1555.259747 130.401 -142.5880
1566.529800 130.490 -142.7321
1577.881521 130.580 -142.8886
1589.315501 130.670 -143.0584
1600.832336 130.761 -143.2419
1612.432627 130.853 -143.4397
1624.116978 130.945 -143.6525
1635.886000 131.037 -143.8808
1647.740304 131.130 -144.1253
1659.680509 131.223 -144.3865
1671.707238 131.317 -144.6653
1683.821118 131.410 -144.9624
1696.022780 131.504 -145.2783
1708.312860 131.598 -145.6138
1720.692000 131.691 -145.9693
1733.160843 131.784 -146.3454
1745.720041 131.876 -146.7427
1758.370248 131.968 -147.1617
1771.112124 132.059 -147.6029
1783.946332 132.150 -148.0666
1796.873543 132.239 -148.5533
1809.894429 132.327 -149.0633
1823.009670 132.413 -149.5968
1836.219950 132.498 -150.1540
1849.525956 132.581 -150.7348
1862.928384 132.662 -151.3392
1876.427931 132.740 -151.9671
1890.025301 132.816 -152.6180
1903.721204 132.889 -153.2917
1917.516352 132.959 -153.9878
1931.411466 133.026 -154.7054
1945.407270 133.089 -155.4440
1959.504493 133.148 -156.2023
1973.703870 133.204 -156.9795
1988.006142 133.255 -157.7743
2002.412054 133.302 -158.5852
2016.922357 133.344 -159.4108
2031.537808 133.381 -160.2495
2046.259169 133.413 -161.0994
2061.087206 133.441 -161.9587
2076.022694 133.463 -162.8254
2091.066410 133.479 -163.6975
2106.219139 133.490 -164.5729
2121.481671 133.496 -165.4495
2136.854802 133.496 -166.3249
2152.339333 133.490 -167.1969
2167.936071 133.479 -168.0632
2183.645829 133.463 -168.9216
2199.469427 133.441 -169.7700
2215.407689 133.414 -170.6063
2231.461446 133.382 -171.4285
2247.631536 133.345 -172.2347
2263.918800 133.303 -173.0231
2280.324089 133.257 -173.7921
2296.848258 133.206 -174.5399
2313.492167 133.151 -175.2653
2330.256685 133.092 -175.9669
2347.142685 133.029 -176.6435
2364.151049 132.963 -177.2941
2381.282662 132.894 -177.9179
2398.538418 132.822 -178.5141
2415.919216 132.748 -179.0820
2433.425962 132.671 -179.6212
2451.059570 132.592 179.8685
2468.820958 132.510 179.3875
2486.711052 132.428 178.9355
2504.730786 132.344 178.5128
2522.881098 132.258 178.1190
2541.162934 132.172 177.7540
2559.577248 132.085 177.4174
2578.125000 131.998 177.1089
2596.807157 131.910 176.8279
2615.624692 131.822 176.5738
2634.578586 131.735 176.3462
2653.669829 131.648 176.1443
2672.899414 131.561 175.9676
2692.268345 131.475 175.8154
2711.777632 131.390 175.6868
2731.428290 131.305 175.5812
2751.221345 131.222 175.4976
2771.157829 131.140 175.4354
2791.238781 131.059 175.3936
2811.465248 130.979 175.3715
2831.838284 130.901 175.3684
2852.358952 130.825 175.3833
2873.028321 130.750 175.4155
2893.847468 130.676 175.4642
2914.817480 130.605 175.5285
2935.939449 130.535 175.6075
2957.214476 130.467 175.7004
2978.643672 130.400 175.8063
3000.228152 130.336 175.9241
3021.969041 130.273 176.0531
3043.867475 130.213 176.1923
3065.924593 130.154 176.3408
3088.141547 130.098 176.4975
3110.519493 130.043 176.6615
3133.059600 129.991 176.8317
3155.763041 129.940 177.0068
3178.631001 129.891 177.1858
3201.664672 129.844 177.3672
3224.865254 129.798 177.5495
3248.233957 129.754 177.7315
3271.771999 129.710 177.9126
3295.480608 129.666 178.0933
3319.361019 129.621 178.2764
3343.414477 129.574 178.4682
3367.642236 129.525 178.6796
3392.045560 129.474 178.9265
3416.625721 129.422 179.2275
3441.383999 129.373 179.5974
3466.321686 129.331 -179.9628
3491.440082 129.302 -179.4735
3516.740496 129.287 -178.9743
3542.224247 129.286 -178.5076
3567.892664 129.295 -178.1012
3593.747085 129.310 -177.7622
3619.788858 129.326 -177.4826
3646.019340 129.341 -177.2477
3672.439900 129.355 -177.0428
3699.051913 129.368 -176.8571
3725.856768 129.380 -176.6832
3752.855862 129.392 -176.5174
3780.050603 129.404 -176.3582
3807.442408 129.417 -176.2056
3835.032705 129.431 -176.0603
3862.822933 129.446 -175.9237
3890.814540 129.463 -175.7972
3919.008986 129.481 -175.6822
3947.407741 129.500 -175.5802
3976.012284 129.520 -175.4928
4004.824108 129.542 -175.4213
4033.844715 129.565 -175.3673
4063.075616 129.589 -175.3321
4092.518337 129.614 -175.3171
4122.174412 129.640 -175.3237
4152.045387 129.666 -175.3531
4182.132820 129.693 -175.4064
4212.438278 129.719 -175.4846
4242.963342 129.745 -175.5887
4273.709604 129.770 -175.7195
4304.678665 129.794 -175.8777
4335.872141 129.817 -176.0637
4367.291658 129.838 -176.2775
4398.938854 129.856 -176.5190
4430.815378 129.872 -176.7879
4462.922893 129.885 -177.0833
4495.263072 129.894 -177.4043
4527.837601 129.899 -177.7492
4560.648179 129.900 -178.1164
4593.696515 129.896 -178.5038
4626.984334 129.887 -178.9089
4660.513370 129.873 -179.3295
4694.285371 129.853 -179.7630
4728.302098 129.828 179.7928
4762.565324 129.797 179.3401
4797.076835 129.760 178.8810
4831.838432 129.716 178.4172
4866.851925 129.666 177.9502
4902.119140 129.610 177.4811
4937.641916 129.547 177.0108
4973.422105 129.476 176.5395
5009.461572 129.398 176.0673
5045.762195 129.311 175.5942
5082.325868 129.213 175.1206
5119.154496 129.103 174.6494
5156.250000 128.978 174.1888
5193.614313 128.834 173.7586
5231.249383 128.667 173.3972
5269.157173 128.473 173.1717
5307.339658 128.253 173.1824
5345.798829 128.016 173.5520
5384.536691 127.784 174.3814
5423.555263 127.587 175.6686
5462.856580 127.456 177.2417
5502.442691 127.401 178.8060
5542.315659 127.408 -179.8968
5582.477563 127.446 -178.9696
5622.930497 127.490 -178.3737
5663.676569 127.522 -178.0062
5704.717904 127.539 -177.7634
5746.056642 127.539 -177.5680
5787.694937 127.526 -177.3732
5829.634960 127.505 -177.1555
5871.878898 127.479 -176.9072
5914.428953 127.450 -176.6289
5957.287343 127.421 -176.3252
6000.456303 127.393 -176.0023
6043.938083 127.366 -175.6661
6087.734950 127.340 -175.3215
6131.849187 127.316 -174.9726
6176.283094 127.294 -174.6223
6221.038987 127.272 -174.2722
6266.119200 127.251 -173.9229
6311.526083 127.230 -173.5741
6357.262002 127.209 -173.2245
6403.329344 127.188 -172.8718
6449.730508 127.166 -172.5132
6496.467914 127.144 -172.1455
6543.543998 127.121 -171.7646
6590.961215 127.098 -171.3665
6638.722037 127.075 -170.9469
6686.828954 127.051 -170.5013
6735.284473 127.029 -170.0255
6784.091120 127.008 -169.5154
6833.251441 126.990 -168.9675
6882.767998 126.976 -168.3791
6932.643372 126.966 -167.7483
6982.880164 126.962 -167.0748
7033.480992 126.966 -166.3598
7084.448495 126.978 -165.6064
7135.785329 127.001 -164.8189
7187.494171 127.035 -164.0019
7239.577717 127.080 -163.1602
7292.038681 127.139 -162.2983
7344.879799 127.213 -161.4207
7398.103826 127.301 -160.5325
7451.713536 127.408 -159.6405
7505.711724 127.533 -158.7533
7560.101205 127.678 -157.8821
7614.884815 127.847 -157.0404
7670.065409 128.039 -156.2445
7725.645865 128.258 -155.5134
7781.629080 128.505 -154.8697
7838.017972 128.781 -154.3403
7894.815481 129.089 -153.9577
7952.024569 129.429 -153.7611
8009.648217 129.801 -153.7969
8067.689429 130.205 -154.1182
8126.151233 130.637 -154.7836
8185.036674 131.092 -155.8555
8244.348824 131.563 -157.3980
8304.090774 132.037 -159.4718
8364.265639 132.500 -162.1266
8424.876556 132.933 -165.3902
8485.926684 133.315 -169.2563
8547.419207 133.622 -173.6730
8609.357330 133.834 -178.5368
8671.744282 133.933 176.3010
8734.583316 133.908 171.0159
8797.877707 133.751 165.7883
8861.630756 133.467 160.7813
8925.845785 133.063 156.1276
8990.526143 132.556 151.9286
9055.675202 131.966 148.2584
9121.296357 131.313 145.1643
9187.393031 130.618 142.6679
9253.968668 129.898 140.7694
9321.026740 129.169 139.4515
9388.570742 128.444 138.6822
9456.604196 127.737 138.4167
9525.130648 127.055 138.6010
9594.153671 126.406 139.1773
9663.676863 125.794 140.0891
9733.703850 125.223 141.2850
9804.238280 124.693 142.7209
9875.283832 124.205 144.3585
9946.844210 123.760 146.1634
10018.923143 123.358 148.1039
10091.524390 122.999 150.1501
10164.651736 122.684 152.2729
10238.308993 122.411 154.4452
10312.500000 122.181 156.6406
10387.228626 121.993 158.8344
10462.498767 121.847 161.0030
10538.314345 121.744 163.1243
10614.679315 121.683 165.1768
10691.597657 121.666 167.1364
10769.073381 121.694 168.9716
10847.110526 121.771 170.6375
10925.713161 121.896 172.0720
11004.885382 122.071 173.1986
11084.631318 122.290 173.9313
11164.955126 122.547 174.1829
11245.860993 122.829 173.8729
11327.353138 123.120 172.9347
11409.435808 123.399 171.3246
11492.113283 123.645 169.0299
11575.389873 123.830 166.0776
11659.269920 123.930 162.5398
11743.757796 123.920 158.5374
11828.857906 123.781 154.2371
11914.574686 123.501 149.8410
12000.912606 123.073 145.5708
12087.876166 122.503 141.6483
12175.469900 121.803 138.2763
12263.698373 120.991 135.6266
12352.566187 120.092 133.8309
12442.077974 119.133 132.9763
12532.238400 118.145 133.0974
12623.052165 117.162 134.1662
12714.524005 116.216 136.0792
12806.658687 115.337 138.6535
12899.461015 114.546 141.6470
12992.935827 113.850 144.8056
13087.087996 113.244 147.9214
13181.922430 112.711 150.8681
13277.444074 112.230 153.6010
13373.657907 111.779 156.1324
13470.568945 111.342 158.5079
13568.182241 110.904 160.7943
13666.502883 110.456 163.0776
13765.535996 109.993 165.4579
13865.286744 109.513 168.0375
13965.760328 109.023 170.9069
14066.961984 108.531 174.1333
14168.896989 108.049 177.7558
14271.570658 107.591 -178.2125
14374.988342 107.167 -173.7765
14479.155433 106.792 -168.9511
14584.077362 106.480 -163.7581
14689.759598 106.245 -158.2340
14796.207652 106.103 -152.4490
14903.427072 106.071 -146.5277
15011.423448 106.161 -140.6615
15120.202410 106.374 -135.0985
15229.769630 106.701 -130.1092
15340.130819 107.121 -125.9378
15451.291730 107.598 -122.7573
15563.258160 108.093 -120.6439
15676.035944 108.563 -119.5711
15789.630962 108.970 -119.4194
15904.049137 109.282 -119.9898
16019.296433 109.477 -121.0233
16135.378859 109.546 -122.2284
16252.302465 109.496 -123.3152
16370.073348 109.347 -124.0330
16488.697648 109.130 -124.2038
16608.181548 108.882 -123.7487
16728.531278 108.643 -122.7013
16849.753112 108.448 -121.2025
16971.853368 108.321 -119.4720
17094.838414 108.270 -117.7614
17218.714660 108.293 -116.3091
17343.488565 108.375 -115.3112
17469.166632 108.494 -114.9146
17595.755415 108.625 -115.2197
17723.261512 108.736 -116.2805
17851.691571 108.790 -118.0935
17981.052287 108.750 -120.5804
18111.350404 108.578 -123.5748
18242.592715 108.244 -126.8247
18374.786062 107.731 -130.0158
18507.937336 107.035 -132.8084
18642.053479 106.163 -134.8705
18777.141484 105.136 -135.8931
18913.208391 103.981 -135.5896
19050.261296 102.731 -133.6981
19188.307342 101.430 -130.0145
19327.353727 100.131 -124.4847
19467.407699 98.899 -117.3686
19608.476560 97.806 -109.3954
19750.567664 96.920 -101.7392
19893.688419 96.299 -95.7176
20037.846286 95.979 -92.4079
