* Measurement data measured by REW V5.20.9
* Source: Головной телефон (TX 384Khz HiFi Audio), MICROPHONE (Общая громкость), L, volume: 0,250. Timing signal peak level -73,4 dBFS, measurement signal peak level -32,6 dBFS
* Format: 256k Log Swept Sine, 1 sweep at -12,0 dBFS using an acoustic timing reference
* Dated: 17.09.2022 16:14:43
* REW Settings:
*  C-weighting compensation: Off
*  Target level: 75.0 dB
* Note: Delay 0,1219 ms (42 mm, 1,65 in) using estimated IR delay relative to Acoustic reference on  L with no timing offset
* Measurement: TangZu Ze Tian Wu
* Smoothing: 1/12 octave
* Frequency Step: 96 ppo
* Start Frequency: 20.141602 Hz
*
* Freq(Hz) SPL(dB) Phase(degrees)
20.141602 121.865 -165.8485
20.287556 121.862 -165.9998
20.434568 121.858 -166.2191
20.582645 121.852 -166.4858
20.731796 121.845 -166.7825
20.882027 121.837 -167.0970
21.033346 121.830 -167.4216
21.185763 121.823 -167.7518
21.339284 121.816 -168.0857
21.493917 121.810 -168.4224
21.649671 121.804 -168.7614
21.806553 121.799 -169.1023
21.964572 121.794 -169.4446
22.123737 121.790 -169.7875
22.284054 121.785 -170.1300
22.445534 121.779 -170.4707
22.608183 121.774 -170.8088
22.772012 121.768 -171.1433
22.937027 121.761 -171.4737
23.103238 121.754 -171.7999
23.270654 121.746 -172.1222
23.439282 121.739 -172.4413
23.609133 121.730 -172.7580
23.780215 121.722 -173.0733
23.952536 121.714 -173.3881
24.126106 121.705 -173.7031
24.300934 121.697 -174.0187
24.477028 121.688 -174.3351
24.654399 121.680 -174.6526
24.833055 121.671 -174.9711
25.013005 121.663 -175.2908
25.194260 121.655 -175.6116
25.376828 121.647 -175.9334
25.560719 121.639 -176.2561
25.745942 121.631 -176.5789
25.932508 121.622 -176.9010
26.120426 121.612 -177.2207
26.309705 121.602 -177.5365
26.500356 121.590 -177.8466
26.692388 121.577 -178.1497
26.885812 121.564 -178.4455
27.080638 121.551 -178.7349
27.276876 121.538 -179.0199
27.474535 121.526 -179.3039
27.673627 121.514 -179.5907
27.874161 121.503 -179.8838
28.076149 121.492 179.8145
28.279600 121.481 179.5038
28.484526 121.468 179.1863
28.690937 121.453 178.8665
28.898843 121.437 178.5499
29.108256 121.419 178.2426
29.319186 121.400 177.9494
29.531645 121.382 177.6720
29.745644 121.364 177.4088
29.961193 121.350 177.1544
30.178304 121.337 176.9008
30.396989 121.328 176.6389
30.617258 121.320 176.3608
30.839123 121.312 176.0621
31.062596 121.303 175.7424
31.287688 121.291 175.4062
31.514412 121.276 175.0616
31.742778 121.257 174.7183
31.972800 121.236 174.3856
32.204488 121.212 174.0704
32.437855 121.189 173.7754
32.672913 121.166 173.4993
32.909674 121.144 173.2373
33.148151 121.125 172.9829
33.388356 121.107 172.7300
33.630302 121.090 172.4742
33.874001 121.073 172.2139
34.119466 121.055 171.9494
34.366710 121.036 171.6830
34.615745 121.017 171.4167
34.866585 120.997 171.1519
35.119243 120.977 170.8885
35.373731 120.958 170.6252
35.630064 120.939 170.3602
35.888254 120.921 170.0922
36.148315 120.903 169.8209
36.410261 120.885 169.5472
36.674104 120.866 169.2731
36.939860 120.846 169.0002
37.207542 120.825 168.7297
37.477163 120.803 168.4619
37.748738 120.781 168.1958
38.022281 120.758 167.9301
38.297806 120.735 167.6637
38.575327 120.711 167.3968
38.854860 120.688 167.1307
39.136419 120.664 166.8685
39.420017 120.642 166.6137
39.705671 120.620 166.3699
39.993395 120.600 166.1398
40.283203 120.580 165.9240
40.575112 120.561 165.7210
40.869136 120.543 165.5273
41.165290 120.524 165.3375
41.463591 120.505 165.1452
41.764053 120.484 164.9439
42.066693 120.462 164.7277
42.371525 120.437 164.4927
42.678567 120.412 164.2372
42.987834 120.385 163.9630
43.299341 120.357 163.6749
43.613106 120.328 163.3805
43.929145 120.300 163.0890
44.247473 120.272 162.8094
44.568109 120.245 162.5491
44.891068 120.219 162.3123
45.216367 120.193 162.0990
45.544023 120.168 161.9053
45.874054 120.144 161.7241
46.206476 120.120 161.5466
46.541307 120.096 161.3643
46.878565 120.073 161.1707
47.218266 120.050 160.9628
47.560429 120.026 160.7419
47.905072 120.004 160.5127
48.252212 119.981 160.2811
48.601867 119.959 160.0524
48.954056 119.936 159.8293
49.308798 119.914 159.6118
49.666109 119.890 159.3977
50.026010 119.863 159.1850
50.388520 119.834 158.9725
50.753656 119.801 158.7604
51.121437 119.765 158.5493
51.491884 119.728 158.3388
51.865016 119.690 158.1266
52.240851 119.653 157.9099
52.619410 119.616 157.6861
53.000712 119.581 157.4550
53.384777 119.546 157.2187
53.771625 119.511 156.9808
54.161276 119.477 156.7449
54.553751 119.444 156.5138
54.949070 119.411 156.2891
55.347254 119.379 156.0718
55.748323 119.348 155.8628
56.152298 119.317 155.6630
56.559201 119.286 155.4720
56.969052 119.255 155.2886
57.381873 119.224 155.1100
57.797686 119.193 154.9329
58.216512 119.161 154.7545
58.638373 119.129 154.5731
59.063291 119.097 154.3881
59.491288 119.066 154.2003
59.922386 119.035 154.0119
60.356608 119.004 153.8256
60.793977 118.973 153.6447
61.234515 118.942 153.4714
61.678246 118.909 153.3062
62.125192 118.876 153.1472
62.575377 118.841 152.9908
63.028824 118.806 152.8333
63.485557 118.770 152.6722
63.945599 118.734 152.5071
64.408975 118.699 152.3393
64.875709 118.663 152.1706
65.345825 118.629 152.0027
65.819348 118.595 151.8366
66.296302 118.561 151.6724
66.776713 118.528 151.5101
67.260604 118.494 151.3499
67.748002 118.460 151.1923
68.238932 118.424 151.0376
68.733420 118.388 150.8860
69.231490 118.352 150.7369
69.733170 118.315 150.5887
70.238485 118.278 150.4400
70.747463 118.242 150.2900
71.260128 118.206 150.1393
71.776508 118.170 149.9895
72.296630 118.135 149.8428
72.820521 118.100 149.7009
73.348209 118.066 149.5646
73.879720 118.030 149.4332
74.415083 117.995 149.3050
74.954326 117.958 149.1780
75.497475 117.921 149.0512
76.044561 117.884 148.9244
76.595612 117.846 148.7981
77.150655 117.808 148.6726
77.709720 117.770 148.5481
78.272837 117.733 148.4246
78.840034 117.695 148.3022
79.411342 117.657 148.1813
79.986789 117.619 148.0618
80.566406 117.582 147.9434
81.150224 117.544 147.8259
81.738272 117.506 147.7096
82.330581 117.468 147.5955
82.927182 117.431 147.4843
83.528107 117.393 147.3765
84.133386 117.354 147.2715
84.743051 117.316 147.1681
85.357134 117.277 147.0652
85.975667 117.239 146.9627
86.598682 117.200 146.8610
87.226212 117.162 146.7611
87.858289 117.123 146.6636
88.494946 117.085 146.5685
89.136217 117.046 146.4757
89.782135 117.008 146.3849
90.432733 116.969 146.2955
91.088046 116.930 146.2070
91.748108 116.891 146.1187
92.412952 116.852 146.0301
93.082615 116.812 145.9411
93.757130 116.773 145.8521
94.436533 116.734 145.7640
95.120859 116.695 145.6776
95.810144 116.657 145.5938
96.504423 116.619 145.5131
97.203734 116.581 145.4359
97.908112 116.542 145.3622
98.617595 116.504 145.2910
99.332219 116.466 145.2211
100.052021 116.427 145.1511
100.777039 116.388 145.0804
101.507311 116.348 145.0094
102.242875 116.308 144.9390
102.983769 116.268 144.8707
103.730032 116.228 144.8060
104.481702 116.188 144.7457
105.238820 116.148 144.6895
106.001424 116.109 144.6359
106.769554 116.070 144.5831
107.543250 116.032 144.5301
108.322553 115.993 144.4771
109.107503 115.954 144.4249
109.898141 115.915 144.3740
110.694508 115.876 144.3246
111.496646 115.837 144.2765
112.304596 115.798 144.2294
113.118402 115.758 144.1834
113.938104 115.719 144.1388
114.763747 115.680 144.0958
115.595372 115.640 144.0545
116.433024 115.601 144.0148
117.276746 115.561 143.9761
118.126581 115.522 143.9385
118.982575 115.483 143.9023
119.844772 115.443 143.8684
120.713217 115.404 143.8376
121.587954 115.365 143.8097
122.469031 115.327 143.7840
123.356492 115.288 143.7595
124.250384 115.249 143.7354
125.150753 115.210 143.7114
126.057647 115.172 143.6882
126.971113 115.133 143.6665
127.891198 115.094 143.6471
128.817950 115.054 143.6302
129.751418 115.015 143.6156
130.691651 114.976 143.6023
131.638696 114.936 143.5897
132.592604 114.897 143.5775
133.553425 114.858 143.5662
134.521208 114.819 143.5563
135.496004 114.781 143.5483
136.477864 114.742 143.5425
137.466839 114.703 143.5392
138.462981 114.664 143.5386
139.466340 114.625 143.5409
140.476971 114.585 143.5457
141.494925 114.546 143.5524
142.520256 114.507 143.5599
143.553016 114.468 143.5678
144.593260 114.429 143.5764
145.641043 114.390 143.5860
146.696418 114.351 143.5968
147.759441 114.312 143.6093
148.830166 114.273 143.6242
149.908651 114.234 143.6419
150.994951 114.195 143.6626
152.089123 114.157 143.6865
153.191223 114.119 143.7140
154.301310 114.080 143.7452
155.419441 114.042 143.7802
156.545674 114.004 143.8188
157.680069 113.967 143.8610
158.822683 113.929 143.9070
159.973578 113.892 143.9574
161.132813 113.856 144.0124
162.300447 113.820 144.0721
163.476543 113.784 144.1359
164.661162 113.749 144.2024
165.854364 113.715 144.2703
167.056213 113.681 144.3386
168.266772 113.649 144.4066
169.486102 113.617 144.4740
170.714268 113.586 144.5405
171.951334 113.557 144.6060
173.197364 113.527 144.6696
174.452424 113.498 144.7303
175.716578 113.470 144.7873
176.989893 113.441 144.8400
178.272434 113.413 144.8883
179.564270 113.385 144.9328
180.865467 113.357 144.9741
182.176092 113.328 145.0131
183.496216 113.300 145.0503
184.825905 113.271 145.0863
186.165229 113.242 145.1215
187.514259 113.214 145.1562
188.873065 113.185 145.1912
190.241717 113.156 145.2270
191.620287 113.128 145.2641
193.008847 113.099 145.3026
194.407468 113.071 145.3421
195.816225 113.042 145.3818
197.235190 113.014 145.4213
198.664438 112.985 145.4606
200.104042 112.957 145.4997
201.554078 112.928 145.5386
203.014622 112.900 145.5771
204.485750 112.871 145.6151
205.967538 112.842 145.6527
207.460064 112.814 145.6898
208.963405 112.785 145.7260
210.477640 112.755 145.7614
212.002848 112.726 145.7960
213.539108 112.696 145.8301
215.086500 112.666 145.8647
216.645105 112.636 145.9009
218.215005 112.606 145.9396
219.796281 112.575 145.9813
221.389015 112.544 146.0262
222.993292 112.513 146.0743
224.609193 112.483 146.1254
226.236804 112.452 146.1797
227.876209 112.421 146.2374
229.527494 112.390 146.2983
231.190745 112.359 146.3623
232.866048 112.328 146.4295
234.553491 112.298 146.4999
236.253163 112.268 146.5735
237.965150 112.239 146.6500
239.689544 112.210 146.7291
241.426433 112.181 146.8109
243.175909 112.152 146.8957
244.938062 112.125 146.9840
246.712984 112.097 147.0762
248.500768 112.070 147.1724
250.301507 112.044 147.2725
252.115295 112.018 147.3757
253.942226 111.993 147.4810
255.782396 111.968 147.5875
257.635901 111.944 147.6944
259.502837 111.921 147.8010
261.383301 111.899 147.9070
263.277392 111.878 148.0122
265.185209 111.858 148.1162
267.106850 111.839 148.2189
269.042417 111.821 148.3196
270.992009 111.804 148.4171
272.955729 111.788 148.5094
274.933678 111.773 148.5945
276.925961 111.759 148.6707
278.932681 111.745 148.7370
280.953942 111.732 148.7937
282.989850 111.718 148.8415
285.040511 111.703 148.8818
287.106032 111.688 148.9164
289.186521 111.672 148.9466
291.282086 111.655 148.9741
293.392836 111.637 149.0005
295.518881 111.619 149.0271
297.660333 111.599 149.0545
299.817302 111.579 149.0834
301.989902 111.558 149.1141
304.178245 111.537 149.1473
306.382446 111.516 149.1833
308.602620 111.494 149.2220
310.838882 111.471 149.2633
313.091348 111.449 149.3070
315.360137 111.427 149.3529
317.645367 111.405 149.4011
319.947156 111.383 149.4516
322.265625 111.361 149.5043
324.600895 111.340 149.5591
326.953086 111.318 149.6161
329.322323 111.296 149.6756
331.708729 111.275 149.7375
334.112427 111.254 149.8013
336.533543 111.233 149.8666
338.972204 111.213 149.9331
341.428536 111.193 150.0006
343.902668 111.172 150.0691
346.394729 111.153 150.1385
348.904848 111.133 150.2090
351.433156 111.113 150.2806
353.979786 111.094 150.3533
356.544869 111.074 150.4266
359.128540 111.055 150.5003
361.730934 111.036 150.5746
364.352185 111.018 150.6494
366.992431 110.999 150.7248
369.651810 110.981 150.8010
372.330459 110.964 150.8779
375.028519 110.946 150.9556
377.746130 110.929 151.0342
380.483434 110.912 151.1140
383.240574 110.895 151.1953
386.017693 110.878 151.2779
388.814937 110.862 151.3617
391.632450 110.845 151.4468
394.470380 110.829 151.5337
397.328875 110.813 151.6235
400.208084 110.797 151.7169
403.108157 110.782 151.8145
406.029245 110.767 151.9157
408.971500 110.753 152.0203
411.935076 110.740 152.1276
414.920127 110.728 152.2371
417.926810 110.717 152.3478
420.955280 110.708 152.4578
424.005695 110.700 152.5645
427.078215 110.694 152.6655
430.173000 110.689 152.7581
433.290211 110.685 152.8405
436.430010 110.681 152.9117
439.592562 110.677 152.9720
442.778031 110.673 153.0230
445.986583 110.668 153.0666
449.218386 110.662 153.1052
452.473607 110.655 153.1412
455.752418 110.647 153.1768
459.054987 110.639 153.2138
462.381489 110.629 153.2537
465.732096 110.620 153.2971
469.106983 110.610 153.3439
472.506325 110.600 153.3936
475.930301 110.590 153.4457
479.379088 110.581 153.5000
482.852867 110.571 153.5561
486.351817 110.562 153.6139
489.876123 110.553 153.6733
493.425968 110.545 153.7344
497.001536 110.537 153.7972
500.603014 110.529 153.8609
504.230589 110.521 153.9252
507.884452 110.514 153.9896
511.564792 110.507 154.0540
515.271802 110.500 154.1182
519.005673 110.493 154.1819
522.766602 110.487 154.2454
526.554785 110.481 154.3089
530.370418 110.475 154.3725
534.213700 110.469 154.4363
538.084833 110.464 154.5006
541.984018 110.460 154.5656
545.911457 110.456 154.6314
549.867357 110.452 154.6982
553.851922 110.448 154.7655
557.865362 110.445 154.8326
561.907884 110.441 154.8987
565.979700 110.438 154.9634
570.081022 110.435 155.0272
574.212064 110.432 155.0905
578.373042 110.430 155.1535
582.564171 110.428 155.2165
586.785671 110.427 155.2798
591.037762 110.426 155.3438
595.320665 110.425 155.4085
599.634604 110.425 155.4739
603.979804 110.425 155.5401
608.356491 110.425 155.6067
612.764893 110.426 155.6732
617.205240 110.427 155.7396
621.677763 110.428 155.8056
626.182696 110.430 155.8716
630.720274 110.432 155.9377
635.290733 110.434 156.0045
639.894312 110.437 156.0720
644.531250 110.440 156.1404
649.201789 110.444 156.2093
653.906173 110.448 156.2786
658.644647 110.452 156.3482
663.417457 110.457 156.4180
668.224854 110.463 156.4880
673.067086 110.469 156.5580
677.944408 110.475 156.6279
682.857073 110.482 156.6978
687.805336 110.489 156.7679
692.789457 110.498 156.8383
697.809695 110.506 156.9091
702.866312 110.515 156.9803
707.959571 110.525 157.0521
713.089738 110.535 157.1246
718.257080 110.546 157.1981
723.461867 110.557 157.2722
728.704370 110.569 157.3464
733.984862 110.582 157.4203
739.303619 110.595 157.4937
744.660918 110.610 157.5667
750.057038 110.625 157.6391
755.492260 110.641 157.7113
760.966869 110.657 157.7838
766.481148 110.674 157.8568
772.035387 110.692 157.9301
777.629873 110.711 158.0034
783.264900 110.730 158.0762
788.940760 110.751 158.1483
794.657750 110.773 158.2196
800.416168 110.796 158.2905
806.216313 110.820 158.3613
812.058489 110.845 158.4318
817.943000 110.871 158.5019
823.870152 110.898 158.5713
829.840255 110.926 158.6399
835.853619 110.956 158.7068
841.910559 110.986 158.7714
848.011390 111.018 158.8331
854.156430 111.051 158.8920
860.346000 111.085 158.9487
866.580422 111.120 159.0034
872.860020 111.157 159.0562
879.185124 111.195 159.1063
885.556062 111.234 159.1530
891.973166 111.275 159.1952
898.436771 111.317 159.2324
904.947215 111.361 159.2643
911.504835 111.406 159.2909
918.109975 111.452 159.3120
924.762978 111.500 159.3275
931.464192 111.549 159.3364
938.213966 111.600 159.3382
945.012651 111.652 159.3320
951.860602 111.705 159.3175
958.758176 111.760 159.2943
965.705733 111.816 159.2620
972.703635 111.873 159.2205
979.752246 111.931 159.1693
986.851935 111.991 159.1086
994.003071 112.051 159.0379
1001.206027 112.113 158.9570
1008.461179 112.176 158.8651
1015.768904 112.240 158.7618
1023.129584 112.305 158.6469
1030.543603 112.370 158.5202
1038.011347 112.437 158.3817
1045.533205 112.504 158.2313
1053.109569 112.572 158.0687
1060.740836 112.640 157.8936
1068.427401 112.709 157.7056
1076.169666 112.778 157.5052
1083.968035 112.848 157.2926
1091.822915 112.918 157.0682
1099.734713 112.988 156.8319
1107.703844 113.058 156.5837
1115.730723 113.129 156.3235
1123.815768 113.199 156.0513
1131.959400 113.270 155.7675
1140.162045 113.340 155.4728
1148.424129 113.411 155.1681
1156.746083 113.481 154.8536
1165.128342 113.552 154.5294
1173.571343 113.622 154.1954
1182.075524 113.692 153.8516
1190.641331 113.762 153.4984
1199.269209 113.832 153.1360
1207.959608 113.902 152.7649
1216.712981 113.971 152.3854
1225.529785 114.041 151.9978
1234.410479 114.110 151.6021
1243.355526 114.180 151.1984
1252.365393 114.249 150.7866
1261.440549 114.319 150.3668
1270.581467 114.389 149.9392
1279.788624 114.458 149.5039
1289.062500 114.528 149.0612
1298.403578 114.598 148.6113
1307.812346 114.668 148.1543
1317.289293 114.738 147.6902
1326.834914 114.809 147.2191
1336.449707 114.880 146.7405
1346.134173 114.951 146.2545
1355.888816 115.022 145.7608
1365.714145 115.094 145.2597
1375.610673 115.166 144.7510
1385.578915 115.239 144.2347
1395.619391 115.312 143.7103
1405.732624 115.385 143.1776
1415.919142 115.460 142.6360
1426.179476 115.535 142.0848
1436.514160 115.611 141.5233
1446.923734 115.687 140.9512
1457.408740 115.765 140.3681
1467.969724 115.843 139.7742
1478.607238 115.922 139.1695
1489.321836 116.002 138.5537
1500.114076 116.082 137.9260
1510.984521 116.163 137.2853
1521.933737 116.244 136.6304
1532.962297 116.327 135.9602
1544.070773 116.410 135.2740
1555.259747 116.494 134.5710
1566.529800 116.579 133.8504
1577.881521 116.665 133.1111
1589.315501 116.752 132.3519
1600.832336 116.839 131.5713
1612.432627 116.927 130.7682
1624.116978 117.016 129.9412
1635.886000 117.105 129.0891
1647.740304 117.194 128.2101
1659.680509 117.282 127.3030
1671.707238 117.370 126.3660
1683.821118 117.458 125.3979
1696.022780 117.544 124.3975
1708.312860 117.629 123.3640
1720.692000 117.711 122.2969
1733.160843 117.791 121.1957
1745.720041 117.867 120.0604
1758.370248 117.940 118.8914
1771.112124 118.007 117.6904
1783.946332 118.069 116.4598
1796.873543 118.124 115.2038
1809.894429 118.172 113.9273
1823.009670 118.212 112.6370
1836.219950 118.243 111.3410
1849.525956 118.266 110.0488
1862.928384 118.280 108.7709
1876.427931 118.285 107.5188
1890.025301 118.282 106.3043
1903.721204 118.272 105.1385
1917.516352 118.257 104.0317
1931.411466 118.239 102.9918
1945.407270 118.219 102.0243
1959.504493 118.201 101.1309
1973.703870 118.187 100.3095
1988.006142 118.180 99.5540
2002.412054 118.182 98.8542
2016.922357 118.194 98.1963
2031.537808 118.218 97.5646
2046.259169 118.255 96.9420
2061.087206 118.304 96.3117
2076.022694 118.366 95.6578
2091.066410 118.438 94.9664
2106.219139 118.521 94.2257
2121.481671 118.612 93.4266
2136.854802 118.710 92.5626
2152.339333 118.813 91.6293
2167.936071 118.919 90.6245
2183.645829 119.028 89.5475
2199.469427 119.137 88.3992
2215.407689 119.247 87.1816
2231.461446 119.355 85.8971
2247.631536 119.460 84.5486
2263.918800 119.563 83.1391
2280.324089 119.662 81.6718
2296.848258 119.757 80.1499
2313.492167 119.848 78.5768
2330.256685 119.934 76.9555
2347.142685 120.015 75.2891
2364.151049 120.090 73.5802
2381.282662 120.159 71.8311
2398.538418 120.222 70.0439
2415.919216 120.279 68.2201
2433.425962 120.330 66.3617
2451.059570 120.374 64.4702
2468.820958 120.411 62.5471
2486.711052 120.441 60.5939
2504.730786 120.463 58.6116
2522.881098 120.478 56.6014
2541.162934 120.484 54.5650
2559.577248 120.480 52.5040
2578.125000 120.467 50.4210
2596.807157 120.443 48.3199
2615.624692 120.406 46.2059
2634.578586 120.357 44.0871
2653.669829 120.293 41.9742
2672.899414 120.214 39.8821
2692.268345 120.119 37.8288
2711.777632 120.010 35.8351
2731.428290 119.887 33.9220
2751.221345 119.753 32.1087
2771.157829 119.611 30.4084
2791.238781 119.466 28.8264
2811.465248 119.322 27.3591
2831.838284 119.182 25.9938
2852.358952 119.049 24.7130
2873.028321 118.925 23.4968
2893.847468 118.810 22.3264
2914.817480 118.704 21.1857
2935.939449 118.606 20.0632
2957.214476 118.514 18.9509
2978.643672 118.429 17.8444
3000.228152 118.349 16.7417
3021.969041 118.274 15.6419
3043.867475 118.202 14.5446
3065.924593 118.135 13.4493
3088.141547 118.071 12.3555
3110.519493 118.011 11.2621
3133.059600 117.954 10.1681
3155.763041 117.900 9.0726
3178.631001 117.850 7.9748
3201.664672 117.804 6.8735
3224.865254 117.760 5.7678
3248.233957 117.720 4.6566
3271.771999 117.683 3.5388
3295.480608 117.649 2.4135
3319.361019 117.618 1.2800
3343.414477 117.590 0.1379
3367.642236 117.565 -1.0134
3392.045560 117.543 -2.1747
3416.625721 117.524 -3.3468
3441.383999 117.508 -4.5305
3466.321686 117.495 -5.7271
3491.440082 117.485 -6.9374
3516.740496 117.478 -8.1630
3542.224247 117.475 -9.4055
3567.892664 117.474 -10.6667
3593.747085 117.477 -11.9484
3619.788858 117.483 -13.2524
3646.019340 117.491 -14.5806
3672.439900 117.503 -15.9348
3699.051913 117.517 -17.3165
3725.856768 117.534 -18.7272
3752.855862 117.554 -20.1682
3780.050603 117.575 -21.6407
3807.442408 117.599 -23.1460
3835.032705 117.625 -24.6851
3862.822933 117.653 -26.2592
3890.814540 117.683 -27.8701
3919.008986 117.714 -29.5202
3947.407741 117.748 -31.2124
3976.012284 117.784 -32.9502
4004.824108 117.821 -34.7375
4033.844715 117.859 -36.5787
4063.075616 117.898 -38.4780
4092.518337 117.937 -40.4401
4122.174412 117.975 -42.4688
4152.045387 118.011 -44.5676
4182.132820 118.045 -46.7394
4212.438278 118.075 -48.9865
4242.963342 118.100 -51.3098
4273.709604 118.118 -53.7098
4304.678665 118.127 -56.1863
4335.872141 118.127 -58.7373
4367.291658 118.115 -61.3597
4398.938854 118.089 -64.0476
4430.815378 118.047 -66.7925
4462.922893 117.987 -69.5818
4495.263072 117.907 -72.3986
4527.837601 117.805 -75.2211
4560.648179 117.680 -78.0227
4593.696515 117.531 -80.7727
4626.984334 117.360 -83.4371
4660.513370 117.168 -85.9818
4694.285371 116.960 -88.3749
4728.302098 116.741 -90.5896
4762.565324 116.518 -92.6078
4797.076835 116.297 -94.4225
4831.838432 116.089 -96.0417
4866.851925 115.901 -97.4915
4902.119140 115.742 -98.8186
4937.641916 115.618 -100.0906
4973.422105 115.531 -101.3914
5009.461572 115.478 -102.8101
5045.762195 115.453 -104.4238
5082.325868 115.441 -106.2808
5119.154496 115.429 -108.3896
5156.250000 115.404 -110.7212
5193.614313 115.357 -113.2184
5231.249383 115.281 -115.8115
5269.157173 115.176 -118.4315
5307.339658 115.044 -121.0210
5345.798829 114.889 -123.5382
5384.536691 114.718 -125.9589
5423.555263 114.537 -128.2747
5462.856580 114.349 -130.4894
5502.442691 114.160 -132.6155
5542.315659 113.971 -134.6686
5582.477563 113.783 -136.6648
5622.930497 113.598 -138.6163
5663.676569 113.413 -140.5309
5704.717904 113.228 -142.4109
5746.056642 113.044 -144.2546
5787.694937 112.858 -146.0583
5829.634960 112.673 -147.8171
5871.878898 112.487 -149.5275
5914.428953 112.302 -151.1869
5957.287343 112.120 -152.7952
6000.456303 111.940 -154.3534
6043.938083 111.765 -155.8645
6087.734950 111.593 -157.3319
6131.849187 111.427 -158.7599
6176.283094 111.266 -160.1522
6221.038987 111.111 -161.5124
6266.119200 110.961 -162.8431
6311.526083 110.816 -164.1467
6357.262002 110.677 -165.4243
6403.329344 110.544 -166.6769
6449.730508 110.417 -167.9045
6496.467914 110.294 -169.1069
6543.543998 110.178 -170.2834
6590.961215 110.067 -171.4340
6638.722037 109.963 -172.5578
6686.828954 109.864 -173.6546
6735.284473 109.773 -174.7239
6784.091120 109.689 -175.7657
6833.251441 109.612 -176.7802
6882.767998 109.542 -177.7671
6932.643372 109.479 -178.7246
6982.880164 109.422 -179.6469
7033.480992 109.371 179.4780
7084.448495 109.325 178.6703
7135.785329 109.287 177.9584
7187.494171 109.258 177.3763
7239.577717 109.246 176.9573
7292.038681 109.258 176.7230
7344.879799 109.304 176.6713
7398.103826 109.393 176.7699
7451.713536 109.535 176.9634
7505.711724 109.731 177.1933
7560.101205 109.986 177.4191
7614.884815 110.303 177.6266
7670.065409 110.690 177.8150
7725.645865 111.160 177.9673
7781.629080 111.725 178.0141
7838.017972 112.394 177.8049
7894.815481 113.162 177.1084
7952.024569 114.006 175.6558
8009.648217 114.888 173.2181
8067.689429 115.763 169.6808
8126.151233 116.589 165.0794
8185.036674 117.337 159.5754
8244.348824 117.997 153.3917
8304.090774 118.572 146.7365
8364.265639 119.074 139.7526
8424.876556 119.514 132.5047
8485.926684 119.897 124.9990
8547.419207 120.222 117.2172
8609.357330 120.477 109.1483
8671.744282 120.648 100.8141
8734.583316 120.721 92.2778
8797.877707 120.682 83.6441
8861.630756 120.526 75.0481
8925.845785 120.253 66.6381
8990.526143 119.868 58.5580
9055.675202 119.384 50.9321
9121.296357 118.820 43.8540
9187.393031 118.193 37.3829
9253.968668 117.523 31.5439
9321.026740 116.830 26.3342
9388.570742 116.129 21.7305
9456.604196 115.436 17.6968
9525.130648 114.760 14.1915
9594.153671 114.112 11.1710
9663.676863 113.498 8.5924
9733.703850 112.925 6.4159
9804.238280 112.399 4.6038
9875.283832 111.925 3.1162
9946.844210 111.509 1.9056
10018.923143 111.158 0.9111
10091.524390 110.874 0.0579
10164.651736 110.660 -0.7348
10238.308993 110.513 -1.5439
10312.500000 110.431 -2.4332
10387.228626 110.406 -3.4494
10462.498767 110.434 -4.6243
10538.314345 110.509 -5.9792
10614.679315 110.628 -7.5291
10691.597657 110.786 -9.2872
10769.073381 110.979 -11.2666
10847.110526 111.206 -13.4813
10925.713161 111.463 -15.9449
11004.885382 111.746 -18.6691
11084.631318 112.054 -21.6623
11164.955126 112.384 -24.9299
11245.860993 112.735 -28.4771
11327.353138 113.108 -32.3148
11409.435808 113.504 -36.4657
11492.113283 113.922 -40.9689
11575.389873 114.360 -45.8804
11659.269920 114.811 -51.2668
11743.757796 115.264 -57.1946
11828.857906 115.702 -63.7125
11914.574686 116.103 -70.8373
12000.912606 116.446 -78.5406
12087.876166 116.708 -86.7454
12175.469900 116.874 -95.3317
12263.698373 116.934 -104.1487
12352.566187 116.884 -113.0331
12442.077974 116.731 -121.8289
12532.238400 116.487 -130.4050
12623.052165 116.168 -138.6680
12714.524005 115.795 -146.5695
12806.658687 115.386 -154.1066
12899.461015 114.958 -161.3147
12992.935827 114.522 -168.2515
13087.087996 114.082 -174.9780
13181.922430 113.638 178.4604
13277.444074 113.186 172.0499
13373.657907 112.719 165.8113
13470.568945 112.236 159.7947
13568.182241 111.738 154.0657
13666.502883 111.233 148.6853
13765.535996 110.735 143.6873
13865.286744 110.262 139.0594
13965.760328 109.831 134.7366
14066.961984 109.458 130.6073
14168.896989 109.150 126.5359
14271.570658 108.906 122.3894
14374.988342 108.720 118.0588
14479.155433 108.580 113.4705
14584.077362 108.473 108.5880
14689.759598 108.385 103.4067
14796.207652 108.307 97.9434
14903.427072 108.230 92.2253
15011.423448 108.149 86.2814
15120.202410 108.062 80.1339
15229.769630 107.969 73.7947
15340.130819 107.868 67.2627
15451.291730 107.760 60.5259
15563.258160 107.639 53.5640
15676.035944 107.502 46.3602
15789.630962 107.338 38.9105
15904.049137 107.137 31.2328
16019.296433 106.886 23.3741
16135.378859 106.577 15.4082
16252.302465 106.202 7.4305
16370.073348 105.760 -0.4536
16488.697648 105.252 -8.1382
16608.181548 104.685 -15.5237
16728.531278 104.069 -22.5184
16849.753112 103.416 -29.0386
16971.853368 102.745 -35.0112
17094.838414 102.080 -40.3909
17218.714660 101.451 -45.1915
17343.488565 100.895 -49.5332
17469.166632 100.448 -53.6783
17595.755415 100.133 -58.0156
17723.261512 99.945 -62.9733
17851.691571 99.853 -68.8989
17981.052287 99.802 -75.9724
18111.350404 99.730 -84.1904
18242.592715 99.579 -93.4027
18374.786062 99.306 -103.3682
18507.937336 98.882 -113.8066
18642.053479 98.290 -124.4370
18777.141484 97.525 -134.9945
18913.208391 96.590 -145.2307
19050.261296 95.487 -154.8931
19188.307342 94.226 -163.7007
19327.353727 92.821 -171.3197
19467.407699 91.296 -177.3621
19608.476560 89.702 178.5208
19750.567664 88.142 176.2689
19893.688419 86.814 174.6924
20037.846286 86.015 171.2252
