* Measurement data measured by REW V5.20.9
* Source: Input device not selected, no input selected, L, volume: no control. Timing signal peak level -52,5 dBFS, measurement signal peak level -23,2 dBFS
* Format: 256k Log Swept Sine, 1 sweep at -12,0 dBFS using an acoustic timing reference
* Dated: 17.04.2024 18:20:00
* REW Settings:
*  C-weighting compensation: Off
*  Target level: 75.0 dB
* Note: Delay -0,3151 ms (-108 mm, -4,26 in) using estimated IR delay relative to Acoustic reference on  R with no timing offset
* Measurement: TD21 R
* Smoothing: 1/12 octave
* Frequency Step: 96 ppo
* Start Frequency: 20.187378 Hz
*
* Freq(Hz) SPL(dB) Phase(degrees)
20.187378 78.650 -42.4285
20.333664 78.752 -43.0559
20.481010 78.901 -43.9580
20.629424 79.081 -45.0030
20.778913 79.278 -46.0590
20.929486 79.483 -47.0064
21.081150 79.691 -47.7447
21.233912 79.900 -48.1947
21.387782 80.113 -48.3024
21.542767 80.332 -48.0429
21.698874 80.564 -47.4243
21.856113 80.811 -46.4904
22.014492 81.076 -45.3187
22.174018 81.358 -44.0131
22.334700 81.650 -42.6910
22.496546 81.945 -41.4675
22.659566 82.231 -40.4414
22.823766 82.493 -39.6841
22.989157 82.720 -39.2368
23.155745 82.900 -39.1108
23.323542 83.022 -39.2923
23.492554 83.081 -39.7472
23.662790 83.074 -40.4261
23.834261 83.002 -41.2685
24.006973 82.872 -42.2055
24.180938 82.693 -43.1651
24.356163 82.484 -44.0765
24.532658 82.265 -44.8790
24.710431 82.064 -45.5319
24.889493 81.908 -46.0248
25.069853 81.823 -46.3838
25.251519 81.823 -46.6684
25.434502 81.912 -46.9573
25.618811 82.077 -47.3275
25.804456 82.297 -47.8345
25.991445 82.544 -48.5008
26.179790 82.791 -49.3163
26.369500 83.015 -50.2451
26.560584 83.198 -51.2362
26.753053 83.331 -52.2324
26.946917 83.407 -53.1783
27.142185 83.428 -54.0251
27.338869 83.399 -54.7355
27.536977 83.331 -55.2868
27.736522 83.237 -55.6745
27.937512 83.134 -55.9140
28.139959 83.041 -56.0402
28.343872 82.973 -56.1043
28.549264 82.943 -56.1643
28.756143 82.960 -56.2749
28.964522 83.024 -56.4751
29.174411 83.130 -56.7807
29.385821 83.269 -57.1816
29.598763 83.428 -57.6457
29.813248 83.595 -58.1263
30.029287 83.760 -58.5722
30.246891 83.914 -58.9371
30.466073 84.054 -59.1871
30.686842 84.178 -59.3068
30.909212 84.286 -59.3019
31.133193 84.382 -59.1993
31.358797 84.468 -59.0427
31.586035 84.547 -58.8853
31.814921 84.620 -58.7804
32.045465 84.689 -58.7719
32.277680 84.754 -58.8865
32.511577 84.815 -59.1308
32.747169 84.874 -59.4924
32.984469 84.933 -59.9449
33.223488 84.997 -60.4546
33.464239 85.069 -60.9889
33.706735 85.153 -61.5219
33.950987 85.251 -62.0379
34.197010 85.363 -62.5316
34.444816 85.488 -63.0042
34.694417 85.621 -63.4586
34.945827 85.755 -63.8944
35.199059 85.886 -64.3041
35.454126 86.007 -64.6722
35.711041 86.117 -64.9779
35.969818 86.214 -65.2000
36.230470 86.300 -65.3240
36.493011 86.380 -65.3494
36.757455 86.457 -65.2946
37.023814 86.536 -65.1966
37.292104 86.618 -65.1051
37.562338 86.704 -65.0696
37.834530 86.790 -65.1259
38.108695 86.873 -65.2858
38.384846 86.951 -65.5351
38.662999 87.023 -65.8391
38.943167 87.093 -66.1566
39.225365 87.166 -66.4539
39.509608 87.247 -66.7158
39.795911 87.338 -66.9461
40.084289 87.436 -67.1598
40.374756 87.536 -67.3695
40.667328 87.629 -67.5752
40.962020 87.710 -67.7641
41.258848 87.778 -67.9196
41.557827 87.835 -68.0375
41.858972 87.890 -68.1375
42.162299 87.949 -68.2636
42.467824 88.018 -68.4694
42.775564 88.096 -68.7954
43.085533 88.180 -69.2481
43.397749 88.264 -69.7943
43.712227 88.347 -70.3731
44.028983 88.427 -70.9202
44.348036 88.507 -71.3913
44.669400 88.588 -71.7754
44.993093 88.670 -72.0922
45.319131 88.750 -72.3784
45.647532 88.826 -72.6723
45.978313 88.896 -73.0041
46.311491 88.963 -73.3942
46.647083 89.029 -73.8526
46.985107 89.098 -74.3760
47.325581 89.170 -74.9415
47.668521 89.247 -75.5030
48.013947 89.327 -75.9983
48.361876 89.412 -76.3691
48.712326 89.504 -76.5861
49.065315 89.605 -76.6651
49.420863 89.711 -76.6638
49.778987 89.816 -76.6579
50.139706 89.915 -76.7121
50.503039 90.000 -76.8613
50.869005 90.070 -77.1110
51.237623 90.129 -77.4489
51.608912 90.184 -77.8553
51.982891 90.239 -78.3044
52.359580 90.297 -78.7588
52.739000 90.357 -79.1701
53.121168 90.421 -79.4940
53.506106 90.488 -79.7135
53.893833 90.562 -79.8563
54.284370 90.640 -79.9867
54.677737 90.717 -80.1742
55.073955 90.789 -80.4560
55.473043 90.854 -80.8196
55.875024 90.918 -81.2163
56.279917 90.990 -81.5949
56.687745 91.082 -81.9321
57.098527 91.198 -82.2404
57.512287 91.330 -82.5497
57.929045 91.465 -82.8814
58.348822 91.589 -83.2350
58.771642 91.692 -83.5950
59.197525 91.773 -83.9475
59.626495 91.837 -84.2919
60.058573 91.894 -84.6412
60.493782 91.950 -85.0123
60.932145 92.012 -85.4134
61.373685 92.082 -85.8383
61.818424 92.156 -86.2684
62.266386 92.234 -86.6811
62.717593 92.313 -87.0594
63.172071 92.392 -87.3984
63.629842 92.472 -87.7039
64.090930 92.553 -87.9863
64.555359 92.634 -88.2535
65.023154 92.716 -88.5096
65.494339 92.797 -88.7582
65.968938 92.876 -89.0072
66.446976 92.952 -89.2680
66.928478 93.024 -89.5503
67.413469 93.095 -89.8569
67.901975 93.166 -90.1842
68.394021 93.240 -90.5260
68.889632 93.318 -90.8780
69.388835 93.401 -91.2392
69.891655 93.485 -91.6144
70.398118 93.569 -92.0164
70.908252 93.652 -92.4616
71.422083 93.734 -92.9597
71.939636 93.814 -93.4996
72.460941 93.894 -94.0467
72.986023 93.973 -94.5538
73.514909 94.050 -94.9816
74.047629 94.125 -95.3163
74.584208 94.196 -95.5755
75.124676 94.262 -95.8010
75.669061 94.323 -96.0411
76.217390 94.382 -96.3330
76.769692 94.442 -96.6932
77.325997 94.502 -97.1176
77.886333 94.561 -97.5893
78.450730 94.616 -98.0870
79.019216 94.666 -98.5938
79.591822 94.711 -99.1025
80.168577 94.754 -99.6152
80.749512 94.801 -100.1384
81.334656 94.857 -100.6804
81.924040 94.927 -101.2483
82.517696 95.008 -101.8393
83.115653 95.097 -102.4314
83.717943 95.190 -102.9902
84.324598 95.284 -103.4940
84.935649 95.379 -103.9506
85.551128 95.471 -104.3845
86.171066 95.557 -104.8120
86.795497 95.635 -105.2319
87.424453 95.705 -105.6394
88.057967 95.769 -106.0419
88.696071 95.827 -106.4617
89.338800 95.879 -106.9246
89.986185 95.926 -107.4419
90.638262 95.971 -108.0006
91.295065 96.017 -108.5683
91.956626 96.067 -109.1116
92.622982 96.119 -109.6107
93.294166 96.172 -110.0668
93.970214 96.225 -110.5049
94.651161 96.279 -110.9689
95.337042 96.335 -111.5056
96.027894 96.393 -112.1439
96.723752 96.450 -112.8816
97.424652 96.504 -113.6850
98.130631 96.553 -114.5007
98.841726 96.597 -115.2769
99.557974 96.638 -115.9817
100.279412 96.678 -116.6095
101.006078 96.716 -117.1761
101.738010 96.756 -117.7098
102.475245 96.797 -118.2406
103.217823 96.841 -118.7877
103.965782 96.884 -119.3525
104.719161 96.924 -119.9262
105.477999 96.959 -120.5035
106.242336 96.988 -121.0890
107.012212 97.011 -121.6925
107.787666 97.030 -122.3208
108.568740 97.047 -122.9725
109.355474 97.062 -123.6404
110.147909 97.077 -124.3179
110.946086 97.092 -124.9974
111.750047 97.108 -125.6640
112.559834 97.123 -126.3000
113.375489 97.136 -126.8984
114.197055 97.146 -127.4660
115.024574 97.153 -128.0164
115.858089 97.160 -128.5596
116.697645 97.166 -129.0960
117.543284 97.173 -129.6216
118.395051 97.180 -130.1420
119.252990 97.189 -130.6786
120.117147 97.198 -131.2548
120.987565 97.209 -131.8778
121.864291 97.220 -132.5344
122.747370 97.229 -133.2018
123.636848 97.236 -133.8588
124.532771 97.239 -134.4894
125.435187 97.236 -135.0848
126.344142 97.227 -135.6444
127.259684 97.213 -136.1719
128.181860 97.196 -136.6683
129.110718 97.178 -137.1366
130.046308 97.162 -137.5907
130.988677 97.147 -138.0498
131.937875 97.132 -138.5256
132.893951 97.116 -139.0192
133.856956 97.098 -139.5278
134.826938 97.079 -140.0475
135.803950 97.059 -140.5735
136.788041 97.039 -141.0990
137.779264 97.018 -141.6193
138.777669 96.996 -142.1370
139.783309 96.975 -142.6600
140.796237 96.953 -143.1924
141.816504 96.930 -143.7299
142.844165 96.903 -144.2636
143.879273 96.874 -144.7825
144.921881 96.844 -145.2755
145.972045 96.812 -145.7333
147.029819 96.780 -146.1516
148.095257 96.747 -146.5343
149.168417 96.713 -146.8915
150.249353 96.676 -147.2354
151.338121 96.638 -147.5757
152.434780 96.598 -147.9161
153.539385 96.558 -148.2546
154.651995 96.518 -148.5872
155.772667 96.478 -148.9120
156.901460 96.437 -149.2297
158.038432 96.396 -149.5419
159.183644 96.354 -149.8501
160.337154 96.311 -150.1539
161.499023 96.268 -150.4503
162.669312 96.226 -150.7343
163.848081 96.182 -151.0030
165.035392 96.138 -151.2566
166.231306 96.093 -151.4970
167.435887 96.046 -151.7282
168.649196 95.997 -151.9581
169.871298 95.949 -152.1957
171.102255 95.900 -152.4444
172.342133 95.851 -152.6989
173.590995 95.802 -152.9495
174.848907 95.754 -153.1874
176.115934 95.707 -153.4079
177.392143 95.661 -153.6115
178.677599 95.616 -153.8007
179.972371 95.570 -153.9772
181.276525 95.524 -154.1409
182.590129 95.477 -154.2912
183.913252 95.429 -154.4274
185.245964 95.380 -154.5496
186.588332 95.330 -154.6602
187.940428 95.280 -154.7618
189.302322 95.230 -154.8551
190.674085 95.182 -154.9370
192.055788 95.134 -155.0009
193.447503 95.085 -155.0431
194.849303 95.035 -155.0698
196.261262 94.981 -155.0917
197.683452 94.925 -155.1149
199.115948 94.867 -155.1420
200.558824 94.809 -155.1770
202.012156 94.752 -155.2222
203.476019 94.697 -155.2727
204.950490 94.645 -155.3183
206.435646 94.595 -155.3483
207.931564 94.547 -155.3582
209.438322 94.499 -155.3490
210.955998 94.451 -155.3247
212.484672 94.403 -155.2896
214.024424 94.354 -155.2472
215.575333 94.305 -155.2000
217.137481 94.255 -155.1501
218.710948 94.204 -155.0982
220.295818 94.151 -155.0445
221.892172 94.097 -154.9880
223.500094 94.042 -154.9267
225.119668 93.987 -154.8587
226.750978 93.933 -154.7803
228.394109 93.881 -154.6854
230.049147 93.830 -154.5696
231.716178 93.781 -154.4330
233.395289 93.734 -154.2809
235.086567 93.687 -154.1203
236.790102 93.642 -153.9558
238.505980 93.597 -153.7902
240.234293 93.554 -153.6237
241.975130 93.515 -153.4533
243.728581 93.477 -153.2745
245.494739 93.439 -153.0862
247.273695 93.399 -152.8944
249.065542 93.358 -152.7122
250.870374 93.316 -152.5500
252.688284 93.274 -152.4025
254.519367 93.231 -152.2500
256.363720 93.189 -152.0762
258.221437 93.146 -151.8780
260.092616 93.102 -151.6583
261.977354 93.057 -151.4223
263.875750 93.011 -151.1761
265.787903 92.965 -150.9218
267.713911 92.919 -150.6581
269.653877 92.874 -150.3859
271.607900 92.830 -150.1103
273.576083 92.788 -149.8360
275.558528 92.745 -149.5630
277.555338 92.700 -149.2908
279.566619 92.653 -149.0223
281.592474 92.605 -148.7569
283.633009 92.557 -148.4865
285.688331 92.512 -148.2011
287.758546 92.469 -147.8970
289.843763 92.429 -147.5789
291.944090 92.389 -147.2558
294.059638 92.352 -146.9326
296.190515 92.315 -146.6042
298.336833 92.279 -146.2616
300.498705 92.244 -145.8987
302.676243 92.209 -145.5153
304.869559 92.175 -145.1164
307.078770 92.139 -144.7117
309.303989 92.101 -144.3133
311.545334 92.062 -143.9263
313.802919 92.023 -143.5495
316.076865 91.987 -143.1819
318.367288 91.955 -142.8226
320.674309 91.926 -142.4696
322.998047 91.896 -142.1170
325.338624 91.865 -141.7556
327.696162 91.833 -141.3762
330.070783 91.798 -140.9751
332.462612 91.764 -140.5564
334.871773 91.732 -140.1279
337.298392 91.702 -139.6982
339.742595 91.673 -139.2733
342.204510 91.644 -138.8547
344.684265 91.614 -138.4420
347.181989 91.586 -138.0339
349.697813 91.558 -137.6283
352.231868 91.530 -137.2255
354.784285 91.504 -136.8273
357.355198 91.478 -136.4327
359.944741 91.453 -136.0317
362.553049 91.428 -135.6078
365.180258 91.402 -135.1489
367.826505 91.374 -134.6617
370.491927 91.345 -134.1686
373.176665 91.316 -133.6868
375.880856 91.288 -133.2130
378.604644 91.259 -132.7299
381.348169 91.232 -132.2262
384.111575 91.207 -131.7004
386.895006 91.183 -131.1530
389.698607 91.161 -130.5861
392.522524 91.139 -130.0066
395.366904 91.116 -129.4225
398.231895 91.092 -128.8343
401.117648 91.067 -128.2373
404.024312 91.040 -127.6293
406.952038 91.012 -127.0171
409.900981 90.984 -126.4131
412.871292 90.955 -125.8297
415.863128 90.926 -125.2734
418.876643 90.897 -124.7400
421.911996 90.867 -124.2167
424.969344 90.838 -123.6840
428.048847 90.809 -123.1238
431.150666 90.784 -122.5306
434.274961 90.765 -121.9145
437.421897 90.750 -121.2906
440.591636 90.740 -120.6674
443.784345 90.730 -120.0452
447.000189 90.720 -119.4211
450.239337 90.708 -118.7898
453.501956 90.691 -118.1442
456.788219 90.671 -117.4787
460.098294 90.649 -116.7941
463.432356 90.626 -116.1007
466.790578 90.603 -115.4068
470.173135 90.580 -114.7090
473.580203 90.560 -114.0004
477.011961 90.543 -113.2795
480.468586 90.531 -112.5525
483.950259 90.522 -111.8294
487.457163 90.516 -111.1199
490.989478 90.510 -110.4257
494.547390 90.505 -109.7346
498.131084 90.500 -109.0270
501.740748 90.493 -108.2876
505.376568 90.485 -107.5151
509.038735 90.477 -106.7218
512.727439 90.467 -105.9242
516.442874 90.458 -105.1330
520.185232 90.451 -104.3528
523.954708 90.447 -103.5853
527.751500 90.446 -102.8262
531.575805 90.448 -102.0637
535.427822 90.452 -101.2873
539.307753 90.455 -100.4911
543.215800 90.457 -99.6732
547.152165 90.458 -98.8384
551.117055 90.459 -97.9963
555.110677 90.461 -97.1557
559.133237 90.463 -96.3209
563.184947 90.466 -95.4942
567.266018 90.470 -94.6759
571.376661 90.475 -93.8640
575.517092 90.482 -93.0540
579.687526 90.488 -92.2405
583.888181 90.493 -91.4197
588.119275 90.497 -90.5907
592.381030 90.500 -89.7547
596.673667 90.503 -88.9128
600.997410 90.509 -88.0645
605.352485 90.518 -87.2108
609.739119 90.530 -86.3533
614.157540 90.545 -85.4908
618.607979 90.562 -84.6224
623.090667 90.580 -83.7507
627.605839 90.599 -82.8799
632.153730 90.618 -82.0114
636.734576 90.636 -81.1426
641.348617 90.652 -80.2671
645.996094 90.667 -79.3804
650.677248 90.681 -78.4824
655.392323 90.693 -77.5766
660.141566 90.706 -76.6672
664.925224 90.721 -75.7549
669.743546 90.737 -74.8385
674.596784 90.756 -73.9180
679.485191 90.775 -72.9917
684.409020 90.795 -72.0572
689.368530 90.817 -71.1143
694.363979 90.841 -70.1647
699.395626 90.870 -69.2107
704.463736 90.901 -68.2540
709.568570 90.935 -67.2931
714.710396 90.969 -66.3246
719.889483 91.001 -65.3465
725.106099 91.031 -64.3581
730.360516 91.057 -63.3590
735.653010 91.081 -62.3512
740.983855 91.102 -61.3423
746.353329 91.123 -60.3389
751.761713 91.144 -59.3375
757.209288 91.165 -58.3262
762.696339 91.185 -57.2972
768.223151 91.206 -56.2553
773.790013 91.230 -55.2123
779.397214 91.258 -54.1766
785.045047 91.293 -53.1519
790.733808 91.332 -52.1379
796.463791 91.376 -51.1313
802.235296 91.420 -50.1276
808.048623 91.465 -49.1226
813.904077 91.509 -48.1119
819.801961 91.552 -47.0897
825.742584 91.592 -46.0516
831.726255 91.631 -45.0024
837.753287 91.670 -43.9546
843.823992 91.709 -42.9165
849.938689 91.748 -41.8850
856.097695 91.787 -40.8473
862.301332 91.826 -39.7884
868.549922 91.866 -38.7021
874.843793 91.907 -37.5973
881.183272 91.948 -36.4875
887.568689 91.989 -35.3757
894.000378 92.031 -34.2585
900.478673 92.075 -33.1351
907.003913 92.121 -32.0070
913.576437 92.168 -30.8730
920.196588 92.218 -29.7331
926.864712 92.270 -28.5926
933.581156 92.324 -27.4589
940.346270 92.378 -26.3391
947.160407 92.434 -25.2348
954.023921 92.490 -24.1345
960.937172 92.549 -23.0208
967.900519 92.608 -21.8819
974.914325 92.669 -20.7173
981.978956 92.730 -19.5352
989.094780 92.791 -18.3423
996.262169 92.850 -17.1386
1003.481495 92.908 -15.9231
1010.753136 92.966 -14.6991
1018.077470 93.022 -13.4712
1025.454879 93.077 -12.2407
1032.885748 93.131 -11.0049
1040.370463 93.186 -9.7588
1047.909417 93.243 -8.5012
1055.503000 93.302 -7.2363
1063.151610 93.360 -5.9688
1070.855645 93.417 -4.6959
1078.615506 93.472 -3.4087
1086.431599 93.528 -2.1005
1094.304330 93.587 -0.7708
1102.234110 93.649 0.5784
1110.221353 93.717 1.9449
1118.266475 93.790 3.3250
1126.369895 93.867 4.7146
1134.532035 93.948 6.1109
1142.753322 94.032 7.5135
1151.034184 94.118 8.9220
1159.375052 94.207 10.3341
1167.776361 94.300 11.7476
1176.238550 94.395 13.1616
1184.762060 94.495 14.5726
1193.347334 94.599 15.9764
1201.994821 94.707 17.3710
1210.704971 94.816 18.7558
1219.478238 94.925 20.1338
1228.315080 95.034 21.5118
1237.215957 95.143 22.8953
1246.181334 95.252 24.2853
1255.211678 95.362 25.6805
1264.307459 95.474 27.0796
1273.469152 95.589 28.4810
1282.697235 95.706 29.8815
1291.992188 95.824 31.2764
1301.354495 95.945 32.6613
1310.784647 96.069 34.0341
1320.283132 96.196 35.3970
1329.850448 96.328 36.7554
1339.487093 96.464 38.1143
1349.193569 96.604 39.4733
1358.970381 96.746 40.8268
1368.818041 96.890 42.1690
1378.737061 97.034 43.4963
1388.727958 97.178 44.8084
1398.791253 97.324 46.1099
1408.927471 97.469 47.4054
1419.137140 97.616 48.6955
1429.420793 97.764 49.9775
1439.778965 97.912 51.2477
1450.212197 98.061 52.5037
1460.721033 98.210 53.7467
1471.306019 98.361 54.9816
1481.967709 98.513 56.2132
1492.706658 98.666 57.4418
1503.523426 98.821 58.6639
1514.418576 98.978 59.8757
1525.392678 99.135 61.0762
1536.446302 99.292 62.2669
1547.580025 99.450 63.4504
1558.794428 99.608 64.6279
1570.090095 99.767 65.7995
1581.467615 99.927 66.9638
1592.927581 100.089 68.1187
1604.470591 100.252 69.2627
1616.097246 100.416 70.3958
1627.808153 100.581 71.5186
1639.603922 100.746 72.6307
1651.485168 100.913 73.7301
1663.452510 101.080 74.8145
1675.506573 101.248 75.8810
1687.647984 101.417 76.9274
1699.877377 101.587 77.9539
1712.195390 101.756 78.9610
1724.602663 101.926 79.9488
1737.099845 102.095 80.9163
1749.687587 102.264 81.8625
1762.366544 102.432 82.7868
1775.137379 102.599 83.6893
1788.000756 102.765 84.5705
1800.957346 102.930 85.4315
1814.007826 103.094 86.2740
1827.152874 103.256 87.1002
1840.393177 103.416 87.9123
1853.729425 103.573 88.7114
1867.162312 103.729 89.4977
1880.692540 103.882 90.2698
1894.320813 104.033 91.0261
1908.047843 104.182 91.7663
1921.874344 104.328 92.4911
1935.801038 104.473 93.2020
1949.828650 104.615 93.9002
1963.957912 104.754 94.5851
1978.189561 104.891 95.2547
1992.524338 105.024 95.9083
2006.962991 105.153 96.5471
2021.506272 105.280 97.1739
2036.154940 105.402 97.7906
2050.909758 105.522 98.3978
2065.771495 105.638 98.9950
2080.740927 105.751 99.5823
2095.818833 105.859 100.1597
2111.006001 105.963 100.7274
2126.303220 106.063 101.2849
2141.711290 106.158 101.8322
2157.231013 106.247 102.3712
2172.863198 106.331 102.9054
2188.608660 106.409 103.4377
2204.468221 106.482 103.9704
2220.442706 106.550 104.5048
2236.532950 106.612 105.0424
2252.739789 106.669 105.5843
2269.064070 106.720 106.1314
2285.506644 106.766 106.6841
2302.068367 106.807 107.2445
2318.750104 106.841 107.8156
2335.552723 106.871 108.3990
2352.477101 106.895 108.9945
2369.524119 106.914 109.6014
2386.694668 106.928 110.2200
2403.989641 106.936 110.8507
2421.409941 106.939 111.4958
2438.956476 106.935 112.1582
2456.630160 106.925 112.8409
2474.431915 106.908 113.5458
2492.362668 106.885 114.2735
2510.423356 106.855 115.0250
2528.614918 106.818 115.8040
2546.938304 106.773 116.6175
2565.394469 106.721 117.4739
2583.984375 106.663 118.3820
2602.708991 106.599 119.3511
2621.569293 106.531 120.3879
2640.566265 106.464 121.4923
2659.700897 106.399 122.6547
2678.974186 106.338 123.8554
2698.387137 106.283 125.0688
2717.940763 106.230 126.2730
2737.636082 106.175 127.4582
2757.474121 106.116 128.6286
2777.455915 106.048 129.7982
2797.582506 105.972 130.9840
2817.854942 105.888 132.2008
2838.274281 105.796 133.4598
2858.841586 105.698 134.7673
2879.557931 105.595 136.1254
2900.424394 105.488 137.5336
2921.442065 105.377 138.9901
2942.612039 105.264 140.4925
2963.935418 105.147 142.0384
2985.413316 105.028 143.6264
3007.046852 104.906 145.2561
3028.837153 104.781 146.9275
3050.785356 104.652 148.6415
3072.892604 104.520 150.3998
3095.160050 104.384 152.2044
3117.588856 104.245 154.0575
3140.180190 104.103 155.9610
3162.935230 103.958 157.9160
3185.855163 103.810 159.9230
3208.941182 103.660 161.9820
3232.194493 103.507 164.0931
3255.616307 103.353 166.2556
3279.207844 103.196 168.4689
3302.970336 103.036 170.7333
3326.905021 102.874 173.0495
3351.013146 102.709 175.4183
3375.295969 102.540 177.8414
3399.754755 102.368 -179.6787
3424.390779 102.192 -177.1382
3449.205326 102.011 -174.5325
3474.199690 101.826 -171.8559
3499.375173 101.637 -169.1029
3524.733088 101.443 -166.2674
3550.274757 101.245 -163.3428
3576.001511 101.042 -160.3224
3601.914692 100.836 -157.1993
3628.015651 100.626 -153.9655
3654.305748 100.413 -150.6120
3680.786354 100.198 -147.1272
3707.458849 99.982 -143.4974
3734.324624 99.767 -139.7067
3761.385080 99.554 -135.7375
3788.641627 99.346 -131.5710
3816.095686 99.148 -127.1896
3843.748688 98.965 -122.5790
3871.602076 98.804 -117.7306
3899.657300 98.673 -112.6468
3927.915825 98.580 -107.3454
3956.379122 98.534 -101.8644
3985.048676 98.544 -96.2647
4013.925981 98.613 -90.6289
4043.012544 98.744 -85.0555
4072.309879 98.933 -79.6472
4101.819515 99.171 -74.4969
4131.542990 99.448 -69.6753
4161.481854 99.749 -65.2230
4191.637667 100.060 -61.1482
4222.012001 100.367 -57.4308
4252.606441 100.662 -54.0296
4283.422580 100.937 -50.8915
4314.462026 101.188 -47.9622
4345.726396 101.413 -45.1948
4377.217321 101.612 -42.5541
4408.936442 101.784 -40.0149
4440.885413 101.927 -37.5536
4473.065899 102.039 -35.1399
4505.479579 102.119 -32.7350
4538.128141 102.167 -30.2961
4571.013288 102.187 -27.7839
4604.136735 102.182 -25.1684
4637.500207 102.156 -22.4296
4671.105446 102.115 -19.5572
4704.954201 102.062 -16.5486
4739.048239 102.001 -13.4058
4773.389336 101.935 -10.1340
4807.979283 101.865 -6.7389
4842.819883 101.794 -3.2269
4877.912952 101.723 0.3962
4913.260320 101.653 4.1246
4948.863830 101.586 7.9525
4984.725337 101.522 11.8738
5020.846712 101.462 15.8824
5057.229836 101.407 19.9718
5093.876609 101.357 24.1360
5130.788938 101.314 28.3687
5167.968750 101.277 32.6633
5205.417982 101.246 37.0143
5243.138586 101.221 41.4174
5281.132530 101.202 45.8697
5319.401793 101.189 50.3695
5357.948371 101.181 54.9152
5396.774274 101.180 59.5055
5435.881525 101.186 64.1384
5475.272163 101.198 68.8118
5514.948243 101.218 73.5230
5554.911831 101.245 78.2684
5595.165012 101.280 83.0447
5635.709884 101.323 87.8467
5676.548561 101.374 92.6692
5717.683172 101.433 97.5063
5759.115861 101.500 102.3524
5800.848789 101.575 107.2030
5842.884130 101.657 112.0547
5885.224077 101.746 116.9051
5927.870837 101.842 121.7523
5970.826633 101.945 126.5942
6014.093704 102.055 131.4279
6057.674306 102.172 136.2493
6101.570711 102.296 141.0532
6145.785208 102.427 145.8329
6190.320101 102.565 150.5808
6235.177712 102.710 155.2875
6280.360380 102.861 159.9432
6325.870460 103.017 164.5375
6371.710325 103.177 169.0609
6417.882365 103.339 173.5050
6464.388986 103.501 177.8633
6511.232613 103.660 -177.8689
6558.415689 103.815 -173.6936
6605.940673 103.962 -169.6105
6653.810042 104.101 -165.6173
6702.026292 104.228 -161.7106
6750.591937 104.342 -157.8869
6799.509509 104.439 -154.1417
6848.781558 104.518 -150.4686
6898.410653 104.575 -146.8577
6948.399380 104.608 -143.2931
6998.750346 104.613 -139.7534
7049.466176 104.589 -136.2118
7100.549514 104.535 -132.6387
7152.003023 104.452 -129.0054
7203.829385 104.340 -125.2865
7256.031302 104.203 -121.4620
7308.611496 104.043 -117.5177
7361.572708 103.861 -113.4440
7414.917698 103.659 -109.2325
7468.649249 103.438 -104.8734
7522.770160 103.200 -100.3541
7577.283253 102.947 -95.6627
7632.191371 102.681 -90.7890
7687.497376 102.404 -85.7266
7743.204151 102.119 -80.4734
7799.314600 101.828 -75.0303
7855.831649 101.534 -69.4016
7912.758244 101.238 -63.5929
7970.097352 100.942 -57.6112
8027.851962 100.649 -51.4636
8086.025087 100.358 -45.1577
8144.619758 100.072 -38.7007
8203.639030 99.791 -32.0998
8263.085980 99.516 -25.3609
8322.963708 99.247 -18.4893
8383.275334 98.984 -11.4884
8444.024002 98.728 -4.3613
8505.212881 98.478 2.8896
8566.845160 98.236 10.2614
8628.924051 98.002 17.7506
8691.452792 97.775 25.3522
8754.434642 97.557 33.0609
8817.872884 97.346 40.8707
8881.770826 97.143 48.7758
8946.131799 96.947 56.7720
9010.959157 96.758 64.8561
9076.256282 96.573 73.0289
9142.026576 96.391 81.2949
9208.273470 96.211 89.6636
9275.000415 96.031 98.1538
9342.210891 95.852 106.7917
9409.908403 95.674 115.6110
9478.096478 95.501 124.6499
9546.778672 95.339 133.9424
9615.958566 95.196 143.5081
9685.639765 95.083 153.3385
9755.825904 95.010 163.3925
9826.520640 94.985 173.5964
9897.727659 95.010 -176.1409
9969.450674 95.082 -165.9084
10041.693423 95.197 -155.7758
10114.459673 95.344 -145.7839
10187.753217 95.516 -135.9457
10261.577877 95.705 -126.2532
10335.937500 95.905 -116.6876
10410.835964 96.113 -107.2249
10486.277173 96.326 -97.8402
10562.265060 96.545 -88.5115
10638.803587 96.770 -79.2195
10715.896743 97.002 -69.9510
10793.548548 97.245 -60.6991
10871.763050 97.500 -51.4650
10950.544327 97.771 -42.2594
11029.896485 98.060 -33.1022
11109.823662 98.369 -24.0228
11190.330024 98.698 -15.0574
11271.419768 99.045 -6.2477
11353.097122 99.407 2.3636
11435.366344 99.777 10.7372
11518.231722 100.150 18.8406
11601.697577 100.516 26.6549
11685.768261 100.867 34.1765
11770.448155 101.193 41.4172
11855.741674 101.489 48.4008
11941.653265 101.746 55.1561
12028.187408 101.960 61.7136
12115.348612 102.123 68.1053
12203.141422 102.229 74.3699
12291.570415 102.270 80.5583
12380.640201 102.241 86.7377
12470.355424 102.136 92.9907
12560.720760 101.955 99.4095
12651.740920 101.700 106.0874
12743.420650 101.379 113.1080
12835.764729 101.002 120.5372
12928.777972 100.581 128.4175
13022.465227 100.129 136.7677
13116.831378 99.658 145.5861
13211.881345 99.181 154.8552
13307.620084 98.708 164.5477
13404.052584 98.244 174.6311
13501.183875 97.797 -174.9297
13599.019019 97.370 -164.1697
13697.563116 96.964 -153.1237
13796.821305 96.582 -141.8242
13896.798760 96.222 -130.3009
13997.500692 95.885 -118.5771
14098.932352 95.570 -106.6696
14201.099028 95.276 -94.5867
14304.006046 95.002 -82.3322
14407.658770 94.748 -69.9082
14512.062604 94.516 -57.3184
14617.222992 94.306 -44.5630
14723.145416 94.119 -31.6373
14829.835397 93.960 -18.5331
14937.298497 93.833 -5.2466
15045.540320 93.746 8.2075
15154.566507 93.706 21.7878
15264.382743 93.719 35.4260
15374.994752 93.790 49.0345
15486.408302 93.918 62.5194
15598.629201 94.097 75.7922
15711.663298 94.319 88.7747
15825.516487 94.574 101.4025
15940.194703 94.849 113.6245
16055.703925 95.130 125.4054
16172.050174 95.399 136.7273
16289.239516 95.640 147.5942
16407.278061 95.835 158.0370
16526.171961 95.965 168.1158
16645.927415 96.015 177.9202
16766.550667 95.972 -172.4337
16888.048005 95.829 -162.8109
17010.425762 95.584 -153.0680
17133.690320 95.239 -143.0641
17257.848103 94.803 -132.6732
17382.905584 94.289 -121.7932
17508.869284 93.710 -110.3497
17635.745768 93.086 -98.2981
17763.541652 92.432 -85.6217
17892.263597 91.765 -72.3276
18021.918315 91.100 -58.4420
18152.512564 90.450 -44.0015
18284.053153 89.826 -29.0486
18416.546939 89.236 -13.6309
18550.000830 88.688 2.2003
18684.421783 88.190 18.3816
18819.816805 87.745 34.8350
18956.192956 87.357 51.4708
19093.557344 87.026 68.1929
19231.917131 86.750 84.9062
19371.279531 86.526 101.5229
19511.651807 86.347 117.9707
19653.041280 86.211 134.2061
19795.455318 86.117 150.2214
19938.901348 86.069 166.0435
