* Measurement data measured by REW V5.20.9
* Source: Микрофон (HiBy FC3), MICROPHONE (Общая громкость), L, volume: 0,900. Timing signal peak level -0,7 dBFS, measurement signal peak level 0,0 dBFS
* Format: 256k Log Swept Sine, 1 sweep at -12,0 dBFS using an acoustic timing reference
* Dated: 17.01.2023 19:42:30
* REW Settings:
*  C-weighting compensation: Off
*  Target level: 75.0 dB
* Note: Delay -0,0174 ms (-6,0 mm, -0,24 in) using estimated IR delay relative to Acoustic reference on SPEAKER L with no timing offset
* Measurement: TRN XuanWu
* Smoothing: 1/12 octave
* Frequency Step: 96 ppo
* Start Frequency: 20.141602 Hz
*
* Freq(Hz) SPL(dB) Phase(degrees)
20.141602 82.823 -170.6777
20.287556 82.823 -170.6710
20.434568 82.823 -170.7543
20.582645 82.823 -170.9015
20.731796 82.823 -171.0898
20.882027 82.823 -171.3028
21.033346 82.822 -171.5316
21.185763 82.822 -171.7743
21.339284 82.822 -172.0193
21.493917 82.822 -172.2633
21.649671 82.823 -172.5042
21.806553 82.823 -172.7401
21.964572 82.823 -172.9693
22.123737 82.823 -173.1980
22.284054 82.823 -173.4200
22.445534 82.822 -173.6325
22.608183 82.821 -173.8357
22.772012 82.819 -174.0301
22.937027 82.817 -174.2171
23.103238 82.815 -174.4041
23.270654 82.812 -174.5917
23.439282 82.810 -174.7795
23.609133 82.806 -174.9705
23.780215 82.802 -175.1675
23.952536 82.798 -175.3727
24.126106 82.792 -175.5951
24.300934 82.786 -175.8301
24.477028 82.778 -176.0735
24.654399 82.770 -176.3228
24.833055 82.760 -176.5745
25.013005 82.750 -176.8248
25.194260 82.739 -177.0773
25.376828 82.729 -177.3196
25.560719 82.720 -177.5489
25.745942 82.714 -177.7643
25.932508 82.710 -177.9672
26.120426 82.710 -178.1663
26.309705 82.714 -178.3645
26.500356 82.722 -178.5650
26.692388 82.734 -178.7742
26.885812 82.747 -178.9972
27.080638 82.761 -179.2405
27.276876 82.774 -179.5060
27.474535 82.785 -179.7862
27.673627 82.792 179.9244
27.874161 82.795 179.6337
28.076149 82.793 179.3474
28.279600 82.786 179.0724
28.484526 82.775 178.8204
28.690937 82.761 178.5959
28.898843 82.745 178.4004
29.108256 82.729 178.2277
29.319186 82.714 178.0730
29.531645 82.700 177.9332
29.745644 82.689 177.8003
29.961193 82.678 177.6666
30.178304 82.670 177.5194
30.396989 82.662 177.3591
30.617258 82.654 177.1851
30.839123 82.645 176.9970
31.062596 82.636 176.7942
31.287688 82.626 176.5751
31.514412 82.616 176.3499
31.742778 82.605 176.1216
31.972800 82.593 175.8934
32.204488 82.582 175.6615
32.437855 82.572 175.4329
32.672913 82.562 175.2096
32.909674 82.553 174.9917
33.148151 82.544 174.7730
33.388356 82.537 174.5551
33.630302 82.530 174.3406
33.874001 82.522 174.1288
34.119466 82.515 173.9162
34.366710 82.507 173.7023
34.615745 82.499 173.4904
34.866585 82.489 173.2809
35.119243 82.480 173.0706
35.373731 82.469 172.8589
35.630064 82.459 172.6500
35.888254 82.448 172.4438
36.148315 82.438 172.2359
36.410261 82.428 172.0275
36.674104 82.417 171.8216
36.939860 82.407 171.6188
37.207542 82.397 171.4138
37.477163 82.386 171.2103
37.748738 82.376 171.0091
38.022281 82.365 170.8089
38.297806 82.353 170.6032
38.575327 82.341 170.3978
38.854860 82.328 170.1928
39.136419 82.315 169.9864
39.420017 82.301 169.7798
39.705671 82.287 169.5779
39.993395 82.274 169.3816
40.283203 82.261 169.1841
40.575112 82.248 168.9915
40.869136 82.236 168.8026
41.165290 82.224 168.6127
41.463591 82.212 168.4217
41.764053 82.198 168.2316
42.066693 82.184 168.0405
42.371525 82.168 167.8437
42.678567 82.152 167.6461
42.987834 82.135 167.4474
43.299341 82.117 167.2436
43.613106 82.100 167.0406
43.929145 82.082 166.8414
44.247473 82.066 166.6437
44.568109 82.050 166.4520
44.891068 82.036 166.2672
45.216367 82.022 166.0829
45.544023 82.009 165.8987
45.874054 81.996 165.7149
46.206476 81.982 165.5280
46.541307 81.968 165.3397
46.878565 81.953 165.1520
47.218266 81.939 164.9594
47.560429 81.926 164.7591
47.905072 81.915 164.5496
48.252212 81.902 164.3270
48.601867 81.888 164.0992
48.954056 81.870 163.8782
49.308798 81.849 163.6719
49.666109 81.824 163.4915
50.026010 81.798 163.3377
50.388520 81.771 163.1991
50.753656 81.745 163.0677
51.121437 81.720 162.9292
51.491884 81.696 162.7726
51.865016 81.674 162.5990
52.240851 81.653 162.4071
52.619410 81.634 162.2020
53.000712 81.616 161.9899
53.384777 81.600 161.7703
53.771625 81.584 161.5538
54.161276 81.568 161.3438
54.553751 81.551 161.1436
54.949070 81.532 160.9567
55.347254 81.512 160.7789
55.748323 81.491 160.6119
56.152298 81.469 160.4518
56.559201 81.446 160.2946
56.969052 81.422 160.1397
57.381873 81.399 159.9804
57.797686 81.376 159.8193
58.216512 81.353 159.6537
58.638373 81.330 159.4831
59.063291 81.306 159.3084
59.491288 81.281 159.1269
59.922386 81.256 158.9431
60.356608 81.230 158.7558
60.793977 81.204 158.5690
61.234515 81.178 158.3849
61.678246 81.153 158.2099
62.125192 81.127 158.0518
62.575377 81.102 157.9125
63.028824 81.078 157.7906
63.485557 81.056 157.6715
63.945599 81.034 157.5400
64.408975 81.011 157.3794
64.875709 80.986 157.1940
65.345825 80.959 156.9944
65.819348 80.930 156.7995
66.296302 80.901 156.6209
66.776713 80.873 156.4616
67.260604 80.847 156.3150
67.748002 80.821 156.1711
68.238932 80.796 156.0209
68.733420 80.769 155.8611
69.231490 80.740 155.6919
69.733170 80.711 155.5178
70.238485 80.681 155.3470
70.747463 80.651 155.1838
71.260128 80.621 155.0305
71.776508 80.590 154.8853
72.296630 80.559 154.7426
72.820521 80.528 154.6007
73.348209 80.496 154.4605
73.879720 80.463 154.3220
74.415083 80.431 154.1813
74.954326 80.399 154.0439
75.497475 80.367 153.9119
76.044561 80.335 153.7902
76.595612 80.303 153.6783
77.150655 80.273 153.5770
77.709720 80.244 153.4830
78.272837 80.216 153.3887
78.840034 80.189 153.2912
79.411342 80.163 153.1926
79.986789 80.138 153.0937
80.566406 80.114 152.9959
81.150224 80.091 152.8972
81.738272 80.069 152.7935
82.330581 80.048 152.6835
82.927182 80.027 152.5643
83.528107 80.005 152.4326
84.133386 79.982 152.2898
84.743051 79.958 152.1353
85.357134 79.932 151.9741
85.975667 79.905 151.8090
86.598682 79.876 151.6386
87.226212 79.846 151.4702
87.858289 79.815 151.3056
88.494946 79.783 151.1497
89.136217 79.751 151.0008
89.782135 79.717 150.8554
90.432733 79.684 150.7156
91.088046 79.650 150.5805
91.748108 79.615 150.4491
92.412952 79.581 150.3157
93.082615 79.547 150.1810
93.757130 79.512 150.0474
94.436533 79.477 149.9156
95.120859 79.442 149.7873
95.810144 79.408 149.6636
96.504423 79.373 149.5453
97.203734 79.339 149.4338
97.908112 79.306 149.3273
98.617595 79.273 149.2177
99.332219 79.239 149.1079
100.052021 79.204 148.9986
100.777039 79.168 148.8878
101.507311 79.132 148.7762
102.242875 79.094 148.6652
102.983769 79.057 148.5557
103.730032 79.020 148.4519
104.481702 78.983 148.3489
105.238820 78.947 148.2455
106.001424 78.910 148.1407
106.769554 78.873 148.0364
107.543250 78.835 147.9339
108.322553 78.797 147.8317
109.107503 78.759 147.7288
109.898141 78.721 147.6260
110.694508 78.683 147.5249
111.496646 78.644 147.4276
112.304596 78.606 147.3302
113.118402 78.567 147.2303
113.938104 78.528 147.1369
114.763747 78.488 147.0461
115.595372 78.448 146.9566
116.433024 78.408 146.8734
117.276746 78.369 146.7949
118.126581 78.329 146.7156
118.982575 78.290 146.6414
119.844772 78.251 146.5651
120.713217 78.211 146.4909
121.587954 78.171 146.4156
122.469031 78.130 146.3395
123.356492 78.089 146.2636
124.250384 78.048 146.1881
125.150753 78.007 146.1127
126.057647 77.966 146.0392
126.971113 77.924 145.9741
127.891198 77.883 145.9168
128.817950 77.842 145.8674
129.751418 77.800 145.8235
130.691651 77.759 145.7780
131.638696 77.718 145.7320
132.592604 77.677 145.6835
133.553425 77.635 145.6274
134.521208 77.593 145.5709
135.496004 77.551 145.5183
136.477864 77.508 145.4641
137.466839 77.465 145.4115
138.462981 77.422 145.3637
139.466340 77.379 145.3195
140.476971 77.336 145.2801
141.494925 77.292 145.2429
142.520256 77.249 145.2078
143.553016 77.205 145.1733
144.593260 77.162 145.1423
145.641043 77.118 145.1146
146.696418 77.074 145.0868
147.759441 77.030 145.0605
148.830166 76.986 145.0361
149.908651 76.942 145.0030
150.994951 76.897 144.9890
152.089123 76.853 144.9661
153.191223 76.809 144.9490
154.301310 76.765 144.9301
155.419441 76.721 144.9147
156.545674 76.677 144.8984
157.680069 76.632 144.8899
158.822683 76.587 144.8812
159.973578 76.542 144.8751
161.132813 76.497 144.8717
162.300447 76.451 144.8726
163.476543 76.406 144.8732
164.661162 76.360 144.8724
165.854364 76.314 144.8757
167.056213 76.268 144.8770
168.266772 76.222 144.8848
169.486102 76.175 144.8950
170.714268 76.129 144.9080
171.951334 76.083 144.9236
173.197364 76.036 144.9394
174.452424 75.990 144.9619
175.716578 75.944 144.9829
176.989893 75.897 145.0037
178.272434 75.850 145.0302
179.564270 75.803 145.0584
180.865467 75.755 145.0870
182.176092 75.708 145.1146
183.496216 75.659 145.1506
184.825905 75.611 145.1863
186.165229 75.562 145.2258
187.514259 75.513 145.2646
188.873065 75.464 145.3026
190.241717 75.415 145.3433
191.620287 75.365 145.3749
193.008847 75.315 145.4066
194.407468 75.265 145.4313
195.816225 75.214 145.4536
197.235190 75.163 145.4776
198.664438 75.110 145.5154
200.104042 75.056 145.5918
201.554078 75.002 145.7038
203.014622 74.947 145.8557
204.485750 74.892 146.0262
205.967538 74.837 146.2054
207.460064 74.782 146.3946
208.963405 74.728 146.5918
210.477640 74.674 146.7998
212.002848 74.621 147.0244
213.539108 74.572 147.2714
215.086500 74.526 147.5413
216.645105 74.486 147.8197
218.215005 74.452 148.1079
219.796281 74.426 148.3987
221.389015 74.406 148.6672
222.993292 74.393 148.9035
224.609193 74.384 149.0991
226.236804 74.377 149.2458
227.876209 74.370 149.3311
229.527494 74.361 149.3786
231.190745 74.348 149.3850
232.866048 74.330 149.3631
234.553491 74.306 149.3217
236.253163 74.278 149.2750
237.965150 74.244 149.2298
239.689544 74.207 149.1956
241.426433 74.166 149.1755
243.175909 74.123 149.1701
244.938062 74.078 149.1816
246.712984 74.032 149.2059
248.500768 73.985 149.2435
250.301507 73.938 149.2948
252.115295 73.890 149.3560
253.942226 73.843 149.4271
255.782396 73.795 149.5087
257.635901 73.747 149.5952
259.502837 73.699 149.6909
261.383301 73.651 149.7950
263.277392 73.604 149.9033
265.185209 73.556 150.0122
267.106850 73.509 150.1335
269.042417 73.462 150.2592
270.992009 73.416 150.3904
272.955729 73.369 150.5221
274.933678 73.323 150.6575
276.925961 73.277 150.7936
278.932681 73.231 150.9389
280.953942 73.185 151.0906
282.989850 73.139 151.2404
285.040511 73.094 151.3906
287.106032 73.048 151.5531
289.186521 73.003 151.7161
291.282086 72.958 151.8806
293.392836 72.913 152.0484
295.518881 72.868 152.2177
297.660333 72.824 152.3898
299.817302 72.780 152.5588
301.989902 72.735 152.7401
304.178245 72.691 152.9187
306.382446 72.647 153.1007
308.602620 72.604 153.2852
310.838882 72.560 153.4772
313.091348 72.517 153.6665
315.360137 72.474 153.8618
317.645367 72.431 154.0615
319.947156 72.388 154.2653
322.265625 72.346 154.4669
324.600895 72.303 154.6732
326.953086 72.261 154.8838
329.322323 72.219 155.0962
331.708729 72.177 155.3127
334.112427 72.135 155.5241
336.533543 72.094 155.7433
338.972204 72.052 155.9651
341.428536 72.011 156.1919
343.902668 71.971 156.4154
346.394729 71.930 156.6447
348.904848 71.890 156.8767
351.433156 71.850 157.1124
353.979786 71.809 157.3481
356.544869 71.769 157.5890
359.128540 71.729 157.8315
361.730934 71.689 158.0750
364.352185 71.650 158.3226
366.992431 71.610 158.5729
369.651810 71.571 158.8292
372.330459 71.532 159.0835
375.028519 71.493 159.3385
377.746130 71.454 159.6047
380.483434 71.416 159.8694
383.240574 71.378 160.1367
386.017693 71.340 160.4052
388.814937 71.303 160.6767
391.632450 71.266 160.9504
394.470380 71.229 161.2285
397.328875 71.192 161.5085
400.208084 71.156 161.7883
403.108157 71.120 162.0720
406.029245 71.083 162.3599
408.971500 71.047 162.6476
411.935076 71.011 162.9343
414.920127 70.976 163.2279
417.926810 70.940 163.5129
420.955280 70.905 163.8094
424.005695 70.869 164.1121
427.078215 70.834 164.4045
430.173000 70.799 164.7084
433.290211 70.764 165.0179
436.430010 70.729 165.3326
439.592562 70.695 165.6484
442.778031 70.660 165.9649
445.986583 70.626 166.2836
449.218386 70.592 166.6095
452.473607 70.558 166.9343
455.752418 70.524 167.2634
459.054987 70.491 167.5952
462.381489 70.457 167.9301
465.732096 70.425 168.2650
469.106983 70.392 168.6028
472.506325 70.360 168.9545
475.930301 70.328 169.3014
479.379088 70.297 169.6532
482.852867 70.265 170.0063
486.351817 70.235 170.3680
489.876123 70.205 170.7256
493.425968 70.175 171.0874
497.001536 70.145 171.4555
500.603014 70.116 171.8298
504.230589 70.086 172.2033
507.884452 70.057 172.5787
511.564792 70.028 172.9648
515.271802 69.999 173.3491
519.005673 69.971 173.7358
522.766602 69.944 174.1281
526.554785 69.917 174.5292
530.370418 69.890 174.9230
534.213700 69.864 175.3211
538.084833 69.838 175.7213
541.984018 69.813 176.1252
545.911457 69.788 176.5305
549.867357 69.764 176.9423
553.851922 69.739 177.3525
557.865362 69.715 177.7750
561.907884 69.691 178.1956
565.979700 69.667 178.6274
570.081022 69.644 179.0627
574.212064 69.622 179.4996
578.373042 69.600 179.9408
582.564171 69.578 -179.6138
586.785671 69.557 -179.1684
591.037762 69.536 -178.7231
595.320665 69.516 -178.2704
599.634604 69.496 -177.8155
603.979804 69.477 -177.3618
608.356491 69.458 -176.9004
612.764893 69.440 -176.4389
617.205240 69.423 -175.9655
621.677763 69.406 -175.4966
626.182696 69.389 -175.0195
630.720274 69.374 -174.5451
635.290733 69.359 -174.0588
639.894312 69.344 -173.5710
644.531250 69.330 -173.0826
649.201789 69.316 -172.5912
653.906173 69.303 -172.0946
658.644647 69.290 -171.5933
663.417457 69.277 -171.0912
668.224854 69.264 -170.5848
673.067086 69.253 -170.0782
677.944408 69.241 -169.5673
682.857073 69.231 -169.0439
687.805336 69.221 -168.5212
692.789457 69.211 -167.9919
697.809695 69.202 -167.4639
702.866312 69.194 -166.9257
707.959571 69.186 -166.3751
713.089738 69.178 -165.8220
718.257080 69.172 -165.2647
723.461867 69.166 -164.7002
728.704370 69.161 -164.1333
733.984862 69.157 -163.5556
739.303619 69.154 -162.9670
744.660918 69.153 -162.3747
750.057038 69.153 -161.7801
755.492260 69.154 -161.1707
760.966869 69.157 -160.5591
766.481148 69.161 -159.9329
772.035387 69.167 -159.3145
777.629873 69.175 -158.6837
783.264900 69.184 -158.0498
788.940760 69.196 -157.4204
794.657750 69.209 -156.7876
800.416168 69.224 -156.1453
806.216313 69.240 -155.5148
812.058489 69.258 -154.8786
817.943000 69.278 -154.2388
823.870152 69.299 -153.5959
829.840255 69.321 -152.9597
835.853619 69.345 -152.3154
841.910559 69.370 -151.6788
848.011390 69.397 -151.0372
854.156430 69.426 -150.4004
860.346000 69.456 -149.7635
866.580422 69.487 -149.1288
872.860020 69.521 -148.4868
879.185124 69.555 -147.8567
885.556062 69.591 -147.2149
891.973166 69.629 -146.5798
898.436771 69.669 -145.9347
904.947215 69.710 -145.2980
911.504835 69.753 -144.6663
918.109975 69.797 -144.0328
924.762978 69.844 -143.3956
931.464192 69.892 -142.7638
938.213966 69.943 -142.1406
945.012651 69.995 -141.5159
951.860602 70.049 -140.8931
958.758176 70.105 -140.2718
965.705733 70.163 -139.6578
972.703635 70.223 -139.0516
979.752246 70.284 -138.4558
986.851935 70.347 -137.8626
994.003071 70.412 -137.2798
1001.206027 70.479 -136.6988
1008.461179 70.548 -136.1375
1015.768904 70.618 -135.5743
1023.129584 70.690 -135.0172
1030.543603 70.763 -134.4771
1038.011347 70.838 -133.9435
1045.533205 70.914 -133.4237
1053.109569 70.991 -132.9108
1060.740836 71.070 -132.4060
1068.427401 71.149 -131.9206
1076.169666 71.230 -131.4355
1083.968035 71.311 -130.9834
1091.822915 71.393 -130.5168
1099.734713 71.477 -130.0766
1107.703844 71.560 -129.6413
1115.730723 71.645 -129.2096
1123.815768 71.729 -128.8074
1131.959400 71.815 -128.3844
1140.162045 71.901 -127.9877
1148.424129 71.987 -127.6101
1156.746083 72.073 -127.2303
1165.128342 72.160 -126.8652
1173.571343 72.247 -126.5022
1182.075524 72.335 -126.1603
1190.641331 72.423 -125.8082
1199.269209 72.510 -125.4746
1207.959608 72.598 -125.1439
1216.712981 72.687 -124.8148
1225.529785 72.775 -124.5095
1234.410479 72.864 -124.2084
1243.355526 72.953 -123.9015
1252.365393 73.042 -123.6132
1261.440549 73.131 -123.3123
1270.581467 73.221 -123.0383
1279.788624 73.312 -122.7489
1289.062500 73.402 -122.4858
1298.403578 73.494 -122.2164
1307.812346 73.585 -121.9577
1317.289293 73.678 -121.7015
1326.834914 73.771 -121.4605
1336.449707 73.864 -121.2124
1346.134173 73.958 -120.9699
1355.888816 74.053 -120.7419
1365.714145 74.149 -120.5069
1375.610673 74.246 -120.2953
1385.578915 74.343 -120.0756
1395.619391 74.442 -119.8699
1405.732624 74.542 -119.6608
1415.919142 74.642 -119.4802
1426.179476 74.744 -119.3015
1436.514160 74.847 -119.1210
1446.923734 74.951 -118.9565
1457.408740 75.056 -118.8019
1467.969724 75.162 -118.6586
1478.607238 75.270 -118.5220
1489.321836 75.379 -118.4065
1500.114076 75.489 -118.2996
1510.984521 75.600 -118.2014
1521.933737 75.713 -118.1189
1532.962297 75.827 -118.0625
1544.070773 75.942 -118.0104
1555.259747 76.058 -117.9726
1566.529800 76.175 -117.9487
1577.881521 76.293 -117.9609
1589.315501 76.412 -117.9740
1600.832336 76.532 -118.0340
1612.432627 76.652 -118.0887
1624.116978 76.773 -118.1805
1635.886000 76.895 -118.2998
1647.740304 77.017 -118.4413
1659.680509 77.139 -118.6102
1671.707238 77.261 -118.7940
1683.821118 77.383 -119.0070
1696.022780 77.504 -119.2545
1708.312860 77.625 -119.5257
1720.692000 77.745 -119.8289
1733.160843 77.864 -120.1619
1745.720041 77.981 -120.5287
1758.370248 78.096 -120.9222
1771.112124 78.209 -121.3342
1783.946332 78.320 -121.7974
1796.873543 78.428 -122.2790
1809.894429 78.533 -122.7995
1823.009670 78.634 -123.3525
1836.219950 78.732 -123.9145
1849.525956 78.825 -124.5085
1862.928384 78.914 -125.1305
1876.427931 78.998 -125.7856
1890.025301 79.077 -126.4319
1903.721204 79.151 -127.1307
1917.516352 79.219 -127.8412
1931.411466 79.281 -128.5586
1945.407270 79.337 -129.2923
1959.504493 79.388 -130.0455
1973.703870 79.432 -130.7841
1988.006142 79.469 -131.5489
2002.412054 79.501 -132.3081
2016.922357 79.526 -133.0618
2031.537808 79.545 -133.8202
2046.259169 79.557 -134.5540
2061.087206 79.564 -135.3001
2076.022694 79.564 -136.0081
2091.066410 79.559 -136.7212
2106.219139 79.548 -137.4104
2121.481671 79.533 -138.0844
2136.854802 79.512 -138.7247
2152.339333 79.487 -139.3559
2167.936071 79.458 -139.9547
2183.645829 79.425 -140.5109
2199.469427 79.388 -141.0581
2215.407689 79.348 -141.5616
2231.461446 79.306 -142.0398
2247.631536 79.261 -142.4831
2263.918800 79.215 -142.8975
2280.324089 79.166 -143.2771
2296.848258 79.117 -143.6314
2313.492167 79.067 -143.9487
2330.256685 79.016 -144.2332
2347.142685 78.966 -144.4919
2364.151049 78.916 -144.7108
2381.282662 78.866 -144.9075
2398.538418 78.818 -145.0654
2415.919216 78.770 -145.1992
2433.425962 78.725 -145.3102
2451.059570 78.681 -145.3766
2468.820958 78.639 -145.4409
2486.711052 78.600 -145.4630
2504.730786 78.564 -145.4746
2522.881098 78.531 -145.4684
2541.162934 78.500 -145.4303
2559.577248 78.474 -145.3798
2578.125000 78.451 -145.3134
2596.807157 78.431 -145.2327
2615.624692 78.416 -145.1460
2634.578586 78.405 -145.0452
2653.669829 78.399 -144.9384
2672.899414 78.396 -144.8149
2692.268345 78.399 -144.6980
2711.777632 78.407 -144.5786
2731.428290 78.420 -144.4507
2751.221345 78.438 -144.3422
2771.157829 78.461 -144.2174
2791.238781 78.490 -144.1161
2811.465248 78.525 -144.0195
2831.838284 78.565 -143.9388
2852.358952 78.611 -143.8749
2873.028321 78.663 -143.8336
2893.847468 78.720 -143.8290
2914.817480 78.784 -143.8422
2935.939449 78.854 -143.8866
2957.214476 78.929 -143.9791
2978.643672 79.009 -144.1075
3000.228152 79.096 -144.2882
3021.969041 79.187 -144.4975
3043.867475 79.283 -144.7950
3065.924593 79.383 -145.1428
3088.141547 79.488 -145.5572
3110.519493 79.595 -146.0551
3133.059600 79.705 -146.6224
3155.763041 79.816 -147.2768
3178.631001 79.927 -148.0250
3201.664672 80.036 -148.8656
3224.865254 80.143 -149.8084
3248.233957 80.246 -150.8403
3271.771999 80.342 -151.9938
3295.480608 80.430 -153.2158
3319.361019 80.508 -154.5680
3343.414477 80.573 -156.0132
3367.642236 80.624 -157.5388
3392.045560 80.657 -159.1577
3416.625721 80.672 -160.8382
3441.383999 80.666 -162.5673
3466.321686 80.637 -164.3294
3491.440082 80.585 -166.1178
3516.740496 80.509 -167.8976
3542.224247 80.409 -169.6517
3567.892664 80.285 -171.3726
3593.747085 80.138 -173.0223
3619.788858 79.970 -174.5626
3646.019340 79.783 -176.0084
3672.439900 79.580 -177.3415
3699.051913 79.364 -178.5295
3725.856768 79.139 -179.5798
3752.855862 78.907 179.5161
3780.050603 78.672 178.7785
3807.442408 78.437 178.1418
3835.032705 78.204 177.6750
3862.822933 77.975 177.3126
3890.814540 77.753 177.0692
3919.008986 77.537 176.9343
3947.407741 77.330 176.9199
3976.012284 77.133 176.9964
4004.824108 76.947 177.1758
4033.844715 76.774 177.4210
4063.075616 76.614 177.7461
4092.518337 76.469 178.1570
4122.174412 76.340 178.6428
4152.045387 76.228 179.1495
4182.132820 76.134 179.7143
4212.438278 76.059 -179.6846
4242.963342 76.003 -179.0572
4273.709604 75.968 -178.4454
4304.678665 75.953 -177.8233
4335.872141 75.958 -177.2282
4367.291658 75.985 -176.6790
4398.938854 76.031 -176.1580
4430.815378 76.096 -175.7241
4462.922893 76.180 -175.3539
4495.263072 76.279 -175.1000
4527.837601 76.394 -174.9489
4560.648179 76.520 -174.9200
4593.696515 76.655 -175.0228
4626.984334 76.797 -175.2658
4660.513370 76.941 -175.6609
4694.285371 77.084 -176.2116
4728.302098 77.223 -176.8968
4762.565324 77.353 -177.7133
4797.076835 77.471 -178.6705
4831.838432 77.574 -179.7083
4866.851925 77.658 179.1194
4902.119140 77.720 177.8882
4937.641916 77.759 176.6137
4973.422105 77.774 175.3012
5009.461572 77.764 174.0087
5045.762195 77.729 172.7410
5082.325868 77.671 171.5512
5119.154496 77.592 170.4314
5156.250000 77.494 169.4255
5193.614313 77.380 168.5227
5231.249383 77.253 167.7738
5269.157173 77.118 167.1505
5307.339658 76.977 166.6750
5345.798829 76.833 166.3465
5384.536691 76.689 166.1439
5423.555263 76.548 166.0594
5462.856580 76.412 166.1312
5502.442691 76.282 166.3123
5542.315659 76.161 166.6169
5582.477563 76.050 167.0199
5622.930497 75.950 167.5244
5663.676569 75.863 168.1039
5704.717904 75.790 168.7765
5746.056642 75.730 169.5361
5787.694937 75.684 170.3550
5829.634960 75.652 171.2340
5871.878898 75.634 172.1541
5914.428953 75.629 173.1130
5957.287343 75.638 174.1227
6000.456303 75.659 175.1617
6043.938083 75.692 176.2382
6087.734950 75.736 177.3627
6131.849187 75.791 178.5116
6176.283094 75.856 179.7067
6221.038987 75.933 -179.0564
6266.119200 76.020 -177.7863
6311.526083 76.118 -176.4283
6357.262002 76.230 -175.0200
6403.329344 76.357 -173.5455
6449.730508 76.500 -172.0307
6496.467914 76.663 -170.4293
6543.543998 76.847 -168.7834
6590.961215 77.055 -167.1100
6638.722037 77.287 -165.4001
6686.828954 77.544 -163.6746
6735.284473 77.828 -161.9945
6784.091120 78.138 -160.3026
6833.251441 78.475 -158.6749
6882.767998 78.838 -157.0781
6932.643372 79.229 -155.5775
6982.880164 79.648 -154.1095
7033.480992 80.096 -152.7638
7084.448495 80.572 -151.5317
7135.785329 81.078 -150.4018
7187.494171 81.614 -149.4920
7239.577717 82.179 -148.7310
7292.038681 82.775 -148.2149
7344.879799 83.398 -147.9382
7398.103826 84.046 -147.9518
7451.713536 84.716 -148.3537
7505.711724 85.399 -149.1429
7560.101205 86.088 -150.3814
7614.884815 86.771 -152.0874
7670.065409 87.434 -154.3471
7725.645865 88.063 -157.1366
7781.629080 88.639 -160.4446
7838.017972 89.148 -164.2301
7894.815481 89.572 -168.4394
7952.024569 89.898 -172.9844
8009.648217 90.116 -177.7531
8067.689429 90.221 177.3956
8126.151233 90.213 172.6320
8185.036674 90.097 168.0399
8244.348824 89.885 163.8052
8304.090774 89.590 159.9811
8364.265639 89.230 156.6902
8424.876556 88.822 153.8940
8485.926684 88.385 151.6245
8547.419207 87.933 149.9177
8609.357330 87.481 148.6884
8671.744282 87.038 147.8806
8734.583316 86.611 147.4819
8797.877707 86.206 147.4454
8861.630756 85.825 147.6829
8925.845785 85.469 148.1719
8990.526143 85.140 148.9240
9055.675202 84.839 149.8539
9121.296357 84.566 150.9603
9187.393031 84.322 152.2109
9253.968668 84.106 153.5876
9321.026740 83.918 155.0654
9388.570742 83.759 156.5981
9456.604196 83.626 158.2341
9525.130648 83.521 159.8901
9594.153671 83.443 161.5700
9663.676863 83.394 163.2964
9733.703850 83.373 165.0225
9804.238280 83.381 166.7132
9875.283832 83.420 168.3836
9946.844210 83.490 169.9993
10018.923143 83.591 171.4974
10091.524390 83.724 172.8702
10164.651736 83.887 174.0519
10238.308993 84.079 175.0344
10312.500000 84.297 175.7270
10387.228626 84.536 176.1267
10462.498767 84.788 176.1262
10538.314345 85.044 175.7318
10614.679315 85.291 174.8673
10691.597657 85.513 173.5001
10769.073381 85.695 171.6141
10847.110526 85.816 169.3341
10925.713161 85.857 166.6578
11004.885382 85.801 163.7130
11084.631318 85.631 160.6167
11164.955126 85.337 157.5571
11245.860993 84.912 154.7655
11327.353138 84.362 152.5319
11409.435808 83.698 151.0150
11492.113283 82.948 150.6395
11575.389873 82.155 151.5882
11659.269920 81.381 154.0010
11743.757796 80.705 157.8229
11828.857906 80.203 162.7425
11914.574686 79.925 168.0534
12000.912606 79.868 173.1108
12087.876166 79.989 177.3386
12175.469900 80.223 -179.5039
12263.698373 80.516 -177.4869
12352.566187 80.832 -176.5723
12442.077974 81.145 -176.7021
12532.238400 81.432 -177.7072
12623.052165 81.669 -179.5716
12714.524005 81.827 177.8403
12806.658687 81.883 174.6346
12899.461015 81.815 170.9835
12992.935827 81.610 166.9877
13087.087996 81.262 162.9058
13181.922430 80.771 158.9716
13277.444074 80.143 155.3873
13373.657907 79.389 152.2618
13470.568945 78.522 149.8065
13568.182241 77.558 148.1497
13666.502883 76.514 147.2774
13765.535996 75.410 147.3037
13865.286744 74.272 148.1996
13965.760328 73.122 149.9198
14066.961984 71.981 152.5365
14168.896989 70.862 155.9692
14271.570658 69.783 160.1125
14374.988342 68.765 164.9616
14479.155433 67.831 170.4276
14584.077362 67.003 176.2873
14689.759598 66.281 -177.5496
14796.207652 65.646 -171.4239
14903.427072 65.067 -165.4442
15011.423448 64.522 -159.6423
15120.202410 64.010 -154.0017
15229.769630 63.558 -148.5000
15340.130819 63.216 -142.9410
15451.291730 63.035 -137.3530
15563.258160 63.035 -131.6519
15676.035944 63.185 -125.8223
15789.630962 63.411 -119.8262
15904.049137 63.646 -113.6675
16019.296433 63.871 -107.4361
16135.378859 64.097 -101.1176
16252.302465 64.318 -94.8029
16370.073348 64.480 -88.5682
16488.697648 64.524 -82.4116
16608.181548 64.435 -76.4722
16728.531278 64.253 -70.9702
16849.753112 64.046 -65.9860
16971.853368 63.879 -61.6217
17094.838414 63.782 -58.1869
17218.714660 63.747 -55.6944
17343.488565 63.742 -54.4319
17469.166632 63.732 -54.3357
17595.755415 63.690 -55.4139
17723.261512 63.591 -57.3948
17851.691571 63.413 -60.0556
17981.052287 63.146 -62.9470
18111.350404 62.788 -65.6105
18242.592715 62.347 -67.4271
18374.786062 61.833 -67.8950
18507.937336 61.249 -66.1461
18642.053479 60.598 -61.2362
18777.141484 59.897 -52.8283
18913.208391 59.193 -42.2975
19050.261296 58.550 -32.5688
19188.307342 58.017 -25.7776
19327.353727 57.606 -21.6269
19467.407699 57.278 -18.9456
19608.476560 56.957 -16.9154
19750.567664 56.595 -15.0687
19893.688419 56.236 -13.4598
20037.846286 56.002 -12.2628
