* Measurement data measured by REW V5.20.9
* Source: Input device not selected, no input selected, L, volume: no control. Timing signal peak level -24,2 dBFS, measurement signal peak level -20,5 dBFS
* Format: 256k Log Swept Sine, 1 sweep at -12,0 dBFS using an acoustic timing reference
* Dated: 11.11.2023 13:13:23
* REW Settings:
*  C-weighting compensation: Off
*  Target level: 75.0 dB
* Note: Delay -0,0202 ms (-6,9 mm, -0,27 in) using estimated IR delay relative to Acoustic reference on  R with no timing offset
* Measurement: MT4ProL
* Smoothing: 1/12 octave
* Frequency Step: 96 ppo
* Start Frequency: 20.187378 Hz
*
* Freq(Hz) SPL(dB) Phase(degrees)
20.187378 107.530 44.9717
20.333664 107.542 44.7738
20.481010 107.559 44.4814
20.629424 107.579 44.1216
20.778913 107.602 43.7182
20.929486 107.626 43.2895
21.081150 107.651 42.8480
21.233912 107.676 42.4023
21.387782 107.702 41.9571
21.542767 107.729 41.5153
21.698874 107.756 41.0777
21.856113 107.783 40.6441
22.014492 107.811 40.2135
22.174018 107.839 39.7850
22.334700 107.866 39.3577
22.496546 107.892 38.9316
22.659566 107.916 38.5077
22.823766 107.938 38.0879
22.989157 107.956 37.6748
23.155745 107.971 37.2714
23.323542 107.983 36.8804
23.492554 107.993 36.5036
23.662790 108.001 36.1410
23.834261 108.009 35.7908
24.006973 108.016 35.4489
24.180938 108.023 35.1094
24.356163 108.031 34.7654
24.532658 108.039 34.4101
24.710431 108.047 34.0383
24.889493 108.052 33.6470
25.069853 108.056 33.2365
25.251519 108.055 32.8106
25.434502 108.050 32.3757
25.618811 108.042 31.9400
25.804456 108.029 31.5115
25.991445 108.016 31.0958
26.179790 108.003 30.6949
26.369500 107.993 30.3055
26.560584 107.989 29.9192
26.753053 107.993 29.5235
26.946917 108.005 29.1040
27.142185 108.025 28.6477
27.338869 108.052 28.1457
27.536977 108.084 27.5963
27.736522 108.117 27.0059
27.937512 108.149 26.3885
28.139959 108.178 25.7641
28.343872 108.204 25.1554
28.549264 108.226 24.5840
28.756143 108.245 24.0668
28.964522 108.262 23.6132
29.174411 108.279 23.2234
29.385821 108.297 22.8890
29.598763 108.316 22.5949
29.813248 108.335 22.3224
30.029287 108.353 22.0536
30.246891 108.367 21.7738
30.466073 108.377 21.4743
30.686842 108.380 21.1521
30.909212 108.376 20.8096
31.133193 108.366 20.4520
31.358797 108.352 20.0853
31.586035 108.336 19.7145
31.814921 108.320 19.3418
32.045465 108.307 18.9674
32.277680 108.298 18.5893
32.511577 108.293 18.2055
32.747169 108.292 17.8143
32.984469 108.294 17.4158
33.223488 108.297 17.0119
33.464239 108.301 16.6056
33.706735 108.303 16.2002
33.950987 108.302 15.7991
34.197010 108.299 15.4044
34.444816 108.293 15.0172
34.694417 108.285 14.6377
34.945827 108.275 14.2654
35.199059 108.264 13.8992
35.454126 108.254 13.5379
35.711041 108.244 13.1798
35.969818 108.236 12.8235
36.230470 108.229 12.4676
36.493011 108.224 12.1114
36.757455 108.219 11.7554
37.023814 108.213 11.4007
37.292104 108.207 11.0494
37.562338 108.200 10.7032
37.834530 108.191 10.3628
38.108695 108.182 10.0269
38.384846 108.173 9.6920
38.662999 108.165 9.3540
38.943167 108.157 9.0095
39.225365 108.150 8.6574
39.509608 108.142 8.3012
39.795911 108.132 7.9475
40.084289 108.121 7.6047
40.374756 108.109 7.2802
40.667328 108.095 6.9764
40.962020 108.080 6.6900
41.258848 108.065 6.4125
41.557827 108.049 6.1336
41.858972 108.030 5.8453
42.162299 108.008 5.5458
42.467824 107.981 5.2390
42.775564 107.951 4.9329
43.085533 107.918 4.6343
43.397749 107.884 4.3449
43.712227 107.853 4.0598
44.028983 107.824 3.7704
44.348036 107.798 3.4690
44.669400 107.774 3.1548
44.993093 107.750 2.8355
45.319131 107.725 2.5257
45.647532 107.699 2.2432
45.978313 107.672 2.0050
46.311491 107.643 1.8257
46.647083 107.613 1.7171
46.985107 107.581 1.6864
47.325581 107.551 1.7307
47.668521 107.526 1.8295
48.013947 107.510 1.9409
48.361876 107.503 2.0073
48.712326 107.505 1.9732
49.065315 107.508 1.8097
49.420863 107.505 1.5306
49.778987 107.490 1.1907
50.139706 107.461 0.8659
50.503039 107.425 0.6227
50.869005 107.387 0.4924
51.237623 107.356 0.4635
51.608912 107.334 0.4950
51.982891 107.320 0.5417
52.359580 107.312 0.5739
52.739000 107.309 0.5805
53.121168 107.313 0.5566
53.506106 107.324 0.4916
53.893833 107.345 0.3652
54.284370 107.373 0.1564
54.677737 107.404 -0.1471
55.073955 107.433 -0.5461
55.473043 107.459 -1.0351
55.875024 107.479 -1.6078
56.279917 107.493 -2.2543
56.687745 107.499 -2.9535
57.098527 107.494 -3.6661
57.512287 107.478 -4.3411
57.929045 107.453 -4.9321
58.348822 107.424 -5.4164
58.771642 107.395 -5.8037
59.197525 107.368 -6.1282
59.626495 107.344 -6.4303
60.058573 107.324 -6.7389
60.493782 107.305 -7.0638
60.932145 107.289 -7.3982
61.373685 107.273 -7.7260
61.818424 107.258 -8.0303
62.266386 107.241 -8.3002
62.717593 107.221 -8.5342
63.172071 107.197 -8.7412
63.629842 107.169 -8.9363
64.090930 107.138 -9.1344
64.555359 107.105 -9.3446
65.023154 107.070 -9.5674
65.494339 107.035 -9.7973
65.968938 106.999 -10.0262
66.446976 106.963 -10.2468
66.928478 106.926 -10.4553
67.413469 106.888 -10.6513
67.901975 106.850 -10.8368
68.394021 106.813 -11.0149
68.889632 106.777 -11.1881
69.388835 106.741 -11.3575
69.891655 106.706 -11.5227
70.398118 106.671 -11.6833
70.908252 106.635 -11.8397
71.422083 106.599 -11.9933
71.939636 106.562 -12.1458
72.460941 106.526 -12.2984
72.986023 106.489 -12.4518
73.514909 106.451 -12.6057
74.047629 106.414 -12.7592
74.584208 106.377 -12.9096
75.124676 106.340 -13.0531
75.669061 106.305 -13.1854
76.217390 106.272 -13.3034
76.769692 106.241 -13.4060
77.325997 106.213 -13.4940
77.886333 106.186 -13.5710
78.450730 106.162 -13.6418
79.019216 106.139 -13.7128
79.591822 106.118 -13.7898
80.168577 106.097 -13.8790
80.749512 106.076 -13.9860
81.334656 106.053 -14.1167
81.924040 106.028 -14.2752
82.517696 106.002 -14.4621
83.115653 105.975 -14.6716
83.717943 105.948 -14.8928
84.324598 105.923 -15.1128
84.935649 105.899 -15.3205
85.551128 105.875 -15.5092
86.171066 105.851 -15.6764
86.795497 105.825 -15.8237
87.424453 105.796 -15.9561
88.057967 105.765 -16.0796
88.696071 105.732 -16.1994
89.338800 105.697 -16.3190
89.986185 105.660 -16.4398
90.638262 105.622 -16.5611
91.295065 105.583 -16.6809
91.956626 105.542 -16.7984
92.622982 105.501 -16.9138
93.294166 105.460 -17.0263
93.970214 105.419 -17.1335
94.651161 105.379 -17.2330
95.337042 105.341 -17.3252
96.027894 105.305 -17.4118
96.723752 105.270 -17.4949
97.424652 105.235 -17.5763
98.130631 105.199 -17.6567
98.841726 105.161 -17.7356
99.557974 105.121 -17.8112
100.279412 105.081 -17.8821
101.006078 105.042 -17.9469
101.738010 105.003 -18.0045
102.475245 104.965 -18.0548
103.217823 104.929 -18.0992
103.965782 104.893 -18.1387
104.719161 104.859 -18.1742
105.477999 104.826 -18.2073
106.242336 104.793 -18.2420
107.012212 104.760 -18.2816
107.787666 104.727 -18.3272
108.568740 104.694 -18.3763
109.355474 104.660 -18.4239
110.147909 104.626 -18.4635
110.946086 104.594 -18.4919
111.750047 104.565 -18.5135
112.559834 104.537 -18.5372
113.375489 104.512 -18.5652
114.197055 104.487 -18.5874
115.024574 104.462 -18.5869
115.858089 104.435 -18.5522
116.697645 104.404 -18.4869
117.543284 104.367 -18.4077
118.395051 104.324 -18.3335
119.252990 104.277 -18.2775
120.117147 104.229 -18.2446
120.987565 104.184 -18.2294
121.864291 104.144 -18.2187
122.747370 104.109 -18.1989
123.636848 104.079 -18.1642
124.532771 104.052 -18.1149
125.435187 104.026 -18.0557
126.344142 103.998 -17.9933
127.259684 103.971 -17.9354
128.181860 103.942 -17.8887
129.110718 103.914 -17.8573
130.046308 103.888 -17.8405
130.988677 103.865 -17.8331
131.937875 103.845 -17.8283
132.893951 103.830 -17.8229
133.856956 103.818 -17.8196
134.826938 103.807 -17.8235
135.803950 103.795 -17.8361
136.788041 103.783 -17.8545
137.779264 103.770 -17.8763
138.777669 103.755 -17.9031
139.783309 103.737 -17.9396
140.796237 103.716 -17.9862
141.816504 103.691 -18.0361
142.844165 103.662 -18.0784
143.879273 103.631 -18.1065
144.921881 103.597 -18.1215
145.972045 103.561 -18.1287
147.029819 103.525 -18.1334
148.095257 103.489 -18.1392
149.168417 103.454 -18.1458
150.249353 103.419 -18.1528
151.338121 103.384 -18.1619
152.434780 103.349 -18.1723
153.539385 103.314 -18.1777
154.651995 103.278 -18.1712
155.772667 103.243 -18.1499
156.901460 103.209 -18.1156
158.038432 103.176 -18.0720
159.183644 103.143 -18.0223
160.337154 103.111 -17.9671
161.499023 103.078 -17.9052
162.669312 103.046 -17.8356
163.848081 103.013 -17.7578
165.035392 102.981 -17.6724
166.231306 102.950 -17.5817
167.435887 102.918 -17.4885
168.649196 102.888 -17.3947
169.871298 102.860 -17.3005
171.102255 102.833 -17.2055
172.342133 102.808 -17.1102
173.590995 102.784 -17.0166
174.848907 102.761 -16.9267
176.115934 102.738 -16.8402
177.392143 102.716 -16.7565
178.677599 102.693 -16.6753
179.972371 102.670 -16.5966
181.276525 102.647 -16.5197
182.590129 102.623 -16.4437
183.913252 102.598 -16.3664
185.245964 102.574 -16.2869
186.588332 102.550 -16.2056
187.940428 102.527 -16.1242
189.302322 102.503 -16.0446
190.674085 102.479 -15.9682
192.055788 102.456 -15.8952
193.447503 102.431 -15.8243
194.849303 102.406 -15.7533
196.261262 102.380 -15.6795
197.683452 102.354 -15.6010
199.115948 102.328 -15.5161
200.558824 102.303 -15.4229
202.012156 102.279 -15.3207
203.476019 102.256 -15.2095
204.950490 102.233 -15.0899
206.435646 102.210 -14.9634
207.931564 102.188 -14.8335
209.438322 102.166 -14.7063
210.955998 102.143 -14.5873
212.484672 102.119 -14.4764
214.024424 102.095 -14.3680
215.575333 102.072 -14.2574
217.137481 102.051 -14.1429
218.710948 102.031 -14.0258
220.295818 102.013 -13.9091
221.892172 101.995 -13.7962
223.500094 101.978 -13.6891
225.119668 101.960 -13.5879
226.750978 101.943 -13.4913
228.394109 101.925 -13.3974
230.049147 101.907 -13.3047
231.716178 101.887 -13.2121
233.395289 101.868 -13.1193
235.086567 101.848 -13.0260
236.790102 101.827 -12.9315
238.505980 101.806 -12.8355
240.234293 101.785 -12.7378
241.975130 101.764 -12.6380
243.728581 101.744 -12.5358
245.494739 101.724 -12.4313
247.273695 101.705 -12.3245
249.065542 101.686 -12.2151
250.870374 101.667 -12.1020
252.688284 101.648 -11.9853
254.519367 101.628 -11.8665
256.363720 101.608 -11.7472
258.221437 101.588 -11.6281
260.092616 101.568 -11.5092
261.977354 101.549 -11.3909
263.875750 101.530 -11.2736
265.787903 101.511 -11.1570
267.713911 101.492 -11.0406
269.653877 101.473 -10.9238
271.607900 101.453 -10.8058
273.576083 101.434 -10.6860
275.558528 101.414 -10.5641
277.555338 101.395 -10.4399
279.566619 101.375 -10.3142
281.592474 101.356 -10.1876
283.633009 101.337 -10.0604
285.688331 101.318 -9.9321
287.758546 101.298 -9.8020
289.843763 101.279 -9.6691
291.944090 101.259 -9.5325
294.059638 101.240 -9.3920
296.190515 101.221 -9.2476
298.336833 101.202 -9.0993
300.498705 101.182 -8.9473
302.676243 101.163 -8.7928
304.869559 101.145 -8.6374
307.078770 101.126 -8.4828
309.303989 101.108 -8.3298
311.545334 101.090 -8.1778
313.802919 101.073 -8.0252
316.076865 101.056 -7.8712
318.367288 101.040 -7.7151
320.674309 101.023 -7.5568
322.998047 101.007 -7.3962
325.338624 100.991 -7.2334
327.696162 100.974 -7.0682
330.070783 100.958 -6.9007
332.462612 100.942 -6.7312
334.871773 100.926 -6.5597
337.298392 100.910 -6.3867
339.742595 100.895 -6.2128
342.204510 100.880 -6.0386
344.684265 100.865 -5.8643
347.181989 100.850 -5.6897
349.697813 100.835 -5.5139
352.231868 100.821 -5.3362
354.784285 100.807 -5.1565
357.355198 100.794 -4.9753
359.944741 100.780 -4.7932
362.553049 100.766 -4.6105
365.180258 100.753 -4.4273
367.826505 100.740 -4.2432
370.491927 100.726 -4.0580
373.176665 100.713 -3.8716
375.880856 100.701 -3.6843
378.604644 100.688 -3.4964
381.348169 100.676 -3.3075
384.111575 100.665 -3.1176
386.895006 100.653 -2.9266
389.698607 100.642 -2.7347
392.522524 100.631 -2.5419
395.366904 100.620 -2.3482
398.231895 100.609 -2.1537
401.117648 100.598 -1.9583
404.024312 100.588 -1.7618
406.952038 100.578 -1.5642
409.900981 100.567 -1.3656
412.871292 100.557 -1.1657
415.863128 100.548 -0.9640
418.876643 100.538 -0.7603
421.911996 100.529 -0.5545
424.969344 100.519 -0.3472
428.048847 100.510 -0.1394
431.150666 100.501 0.0685
434.274961 100.493 0.2763
437.421897 100.484 0.4845
440.591636 100.476 0.6933
443.784345 100.468 0.9031
447.000189 100.460 1.1142
450.239337 100.453 1.3265
453.501956 100.446 1.5398
456.788219 100.439 1.7542
460.098294 100.432 1.9699
463.432356 100.425 2.1869
466.790578 100.419 2.4049
470.173135 100.412 2.6241
473.580203 100.406 2.8445
477.011961 100.400 3.0660
480.468586 100.393 3.2889
483.950259 100.387 3.5132
487.457163 100.381 3.7389
490.989478 100.376 3.9664
494.547390 100.371 4.1954
498.131084 100.365 4.4257
501.740748 100.361 4.6566
505.376568 100.356 4.8881
509.038735 100.351 5.1202
512.727439 100.347 5.3536
516.442874 100.343 5.5886
520.185232 100.340 5.8256
523.954708 100.336 6.0643
527.751500 100.333 6.3043
531.575805 100.330 6.5452
535.427822 100.328 6.7874
539.307753 100.325 7.0313
543.215800 100.323 7.2774
547.152165 100.321 7.5257
551.117055 100.319 7.7759
555.110677 100.317 8.0275
559.133237 100.316 8.2803
563.184947 100.315 8.5344
567.266018 100.314 8.7900
571.376661 100.313 9.0474
575.517092 100.313 9.3069
579.687526 100.313 9.5685
583.888181 100.313 9.8324
588.119275 100.313 10.0981
592.381030 100.314 10.3654
596.673667 100.314 10.6341
600.997410 100.316 10.9040
605.352485 100.317 11.1755
609.739119 100.319 11.4487
614.157540 100.321 11.7237
618.607979 100.324 12.0008
623.090667 100.327 12.2801
627.605839 100.330 12.5618
632.153730 100.334 12.8460
636.734576 100.338 13.1328
641.348617 100.342 13.4221
645.996094 100.346 13.7135
650.677248 100.351 14.0071
655.392323 100.356 14.3033
660.141566 100.362 14.6021
664.925224 100.368 14.9036
669.743546 100.375 15.2076
674.596784 100.383 15.5139
679.485191 100.391 15.8224
684.409020 100.399 16.1328
689.368530 100.408 16.4453
694.363979 100.418 16.7599
699.395626 100.428 17.0769
704.463736 100.438 17.3967
709.568570 100.448 17.7194
714.710396 100.460 18.0454
719.889483 100.471 18.3744
725.106099 100.484 18.7062
730.360516 100.497 19.0403
735.653010 100.511 19.3766
740.983855 100.525 19.7149
746.353329 100.541 20.0553
751.761713 100.557 20.3981
757.209288 100.574 20.7440
762.696339 100.591 21.0932
768.223151 100.610 21.4450
773.790013 100.630 21.7991
779.397214 100.650 22.1552
785.045047 100.672 22.5133
790.733808 100.695 22.8731
796.463791 100.718 23.2340
802.235296 100.743 23.5956
808.048623 100.769 23.9575
813.904077 100.796 24.3200
819.801961 100.824 24.6835
825.742584 100.853 25.0479
831.726255 100.883 25.4133
837.753287 100.914 25.7792
843.823992 100.946 26.1448
849.938689 100.980 26.5096
856.097695 101.014 26.8726
862.301332 101.050 27.2327
868.549922 101.087 27.5890
874.843793 101.125 27.9409
881.183272 101.163 28.2886
887.568689 101.201 28.6332
894.000378 101.239 28.9772
900.478673 101.277 29.3248
907.003913 101.315 29.6815
913.576437 101.355 30.0527
920.196588 101.396 30.4402
926.864712 101.441 30.8398
933.581156 101.491 31.2416
940.346270 101.544 31.6343
947.160407 101.600 32.0105
954.023921 101.658 32.3689
960.937172 101.717 32.7134
967.900519 101.776 33.0506
974.914325 101.836 33.3859
981.978956 101.897 33.7209
989.094780 101.961 34.0527
996.262169 102.028 34.3760
1003.481495 102.097 34.6857
1010.753136 102.168 34.9787
1018.077470 102.239 35.2539
1025.454879 102.312 35.5118
1032.885748 102.385 35.7542
1040.370463 102.459 35.9825
1047.909417 102.532 36.1980
1055.503000 102.606 36.4014
1063.151610 102.680 36.5931
1070.855645 102.755 36.7740
1078.615506 102.829 36.9448
1086.431599 102.904 37.1061
1094.304330 102.979 37.2578
1102.234110 103.053 37.3995
1110.221353 103.128 37.5309
1118.266475 103.202 37.6521
1126.369895 103.277 37.7633
1134.532035 103.351 37.8653
1142.753322 103.424 37.9584
1151.034184 103.498 38.0432
1159.375052 103.571 38.1202
1167.776361 103.643 38.1894
1176.238550 103.716 38.2512
1184.762060 103.788 38.3061
1193.347334 103.859 38.3546
1201.994821 103.930 38.3967
1210.704971 104.001 38.4325
1219.478238 104.072 38.4618
1228.315080 104.142 38.4847
1237.215957 104.212 38.5007
1246.181334 104.282 38.5092
1255.211678 104.351 38.5095
1264.307459 104.420 38.5017
1273.469152 104.487 38.4872
1282.697235 104.553 38.4691
1291.992188 104.618 38.4514
1301.354495 104.681 38.4375
1310.784647 104.745 38.4280
1320.283132 104.808 38.4212
1329.850448 104.872 38.4149
1339.487093 104.936 38.4073
1349.193569 105.000 38.3980
1358.970381 105.065 38.3870
1368.818041 105.129 38.3751
1378.737061 105.194 38.3632
1388.727958 105.260 38.3519
1398.791253 105.326 38.3405
1408.927471 105.393 38.3263
1419.137140 105.461 38.3060
1429.420793 105.531 38.2769
1439.778965 105.600 38.2385
1450.212197 105.670 38.1920
1460.721033 105.739 38.1393
1471.306019 105.808 38.0819
1481.967709 105.877 38.0204
1492.706658 105.947 37.9550
1503.523426 106.017 37.8856
1514.418576 106.087 37.8119
1525.392678 106.157 37.7335
1536.446302 106.229 37.6501
1547.580025 106.300 37.5611
1558.794428 106.372 37.4660
1570.090095 106.445 37.3640
1581.467615 106.518 37.2544
1592.927581 106.592 37.1367
1604.470591 106.666 37.0107
1616.097246 106.741 36.8761
1627.808153 106.815 36.7326
1639.603922 106.890 36.5799
1651.485168 106.966 36.4174
1663.452510 107.041 36.2446
1675.506573 107.117 36.0612
1687.647984 107.193 35.8669
1699.877377 107.269 35.6617
1712.195390 107.345 35.4455
1724.602663 107.422 35.2182
1737.099845 107.498 34.9796
1749.687587 107.574 34.7293
1762.366544 107.650 34.4671
1775.137379 107.726 34.1926
1788.000756 107.802 33.9056
1800.957346 107.877 33.6056
1814.007826 107.952 33.2922
1827.152874 108.027 32.9649
1840.393177 108.101 32.6237
1853.729425 108.174 32.2683
1867.162312 108.247 31.8987
1880.692540 108.320 31.5147
1894.320813 108.391 31.1160
1908.047843 108.461 30.7023
1921.874344 108.531 30.2732
1935.801038 108.599 29.8283
1949.828650 108.666 29.3673
1963.957912 108.732 28.8901
1978.189561 108.796 28.3971
1992.524338 108.858 27.8884
2006.962991 108.918 27.3644
2021.506272 108.976 26.8255
2036.154940 109.032 26.2721
2050.909758 109.085 25.7048
2065.771495 109.136 25.1242
2080.740927 109.185 24.5311
2095.818833 109.230 23.9262
2111.006001 109.273 23.3100
2126.303220 109.312 22.6830
2141.711290 109.349 22.0459
2157.231013 109.383 21.3995
2172.863198 109.413 20.7448
2188.608660 109.440 20.0826
2204.468221 109.464 19.4140
2220.442706 109.485 18.7397
2236.532950 109.502 18.0605
2252.739789 109.515 17.3772
2269.064070 109.525 16.6903
2285.506644 109.531 16.0007
2302.068367 109.533 15.3091
2318.750104 109.531 14.6166
2335.552723 109.526 13.9246
2352.477101 109.516 13.2345
2369.524119 109.502 12.5475
2386.694668 109.484 11.8643
2403.989641 109.462 11.1860
2421.409941 109.435 10.5137
2438.956476 109.405 9.8491
2456.630160 109.370 9.1938
2474.431915 109.330 8.5496
2492.362668 109.286 7.9186
2510.423356 109.238 7.3026
2528.614918 109.185 6.7040
2546.938304 109.128 6.1245
2565.394469 109.066 5.5664
2583.984375 109.000 5.0320
2602.708991 108.930 4.5242
2621.569293 108.856 4.0461
2640.566265 108.777 3.6007
2659.700897 108.695 3.1914
2678.974186 108.610 2.8213
2698.387137 108.522 2.4937
2717.940763 108.431 2.2112
2737.636082 108.339 1.9762
2757.474121 108.246 1.7904
2777.455915 108.153 1.6554
2797.582506 108.061 1.5723
2817.854942 107.970 1.5412
2838.274281 107.882 1.5610
2858.841586 107.797 1.6292
2879.557931 107.717 1.7421
2900.424394 107.642 1.8946
2921.442065 107.572 2.0800
2942.612039 107.509 2.2910
2963.935418 107.452 2.5201
2985.413316 107.401 2.7609
3007.046852 107.356 3.0081
3028.837153 107.315 3.2583
3050.785356 107.278 3.5101
3072.892604 107.246 3.7633
3095.160050 107.216 4.0193
3117.588856 107.190 4.2794
3140.180190 107.167 4.5450
3162.935230 107.147 4.8169
3185.855163 107.131 5.0956
3208.941182 107.118 5.3807
3232.194493 107.109 5.6714
3255.616307 107.103 5.9661
3279.207844 107.102 6.2629
3302.970336 107.105 6.5604
3326.905021 107.112 6.8570
3351.013146 107.123 7.1516
3375.295969 107.139 7.4433
3399.754755 107.159 7.7315
3424.390779 107.183 8.0158
3449.205326 107.211 8.2957
3474.199690 107.244 8.5704
3499.375173 107.283 8.8386
3524.733088 107.327 9.0982
3550.274757 107.376 9.3462
3576.001511 107.432 9.5786
3601.914692 107.493 9.7901
3628.015651 107.561 9.9748
3654.305748 107.636 10.1261
3680.786354 107.716 10.2377
3707.458849 107.802 10.3036
3734.324624 107.892 10.3193
3761.385080 107.986 10.2814
3788.641627 108.082 10.1880
3816.095686 108.181 10.0380
3843.748688 108.280 9.8313
3871.602076 108.380 9.5680
3899.657300 108.480 9.2489
3927.915825 108.580 8.8743
3956.379122 108.678 8.4441
3985.048676 108.775 7.9575
4013.925981 108.871 7.4132
4043.012544 108.964 6.8098
4072.309879 109.055 6.1452
4101.819515 109.143 5.4172
4131.542990 109.226 4.6239
4161.481854 109.305 3.7638
4191.637667 109.376 2.8364
4222.012001 109.440 1.8426
4252.606441 109.496 0.7842
4283.422580 109.540 -0.3356
4314.462026 109.573 -1.5121
4345.726396 109.593 -2.7390
4377.217321 109.599 -4.0085
4408.936442 109.590 -5.3113
4440.885413 109.564 -6.6365
4473.065899 109.521 -7.9727
4505.479579 109.461 -9.3076
4538.128141 109.382 -10.6287
4571.013288 109.287 -11.9232
4604.136735 109.173 -13.1781
4637.500207 109.044 -14.3813
4671.105446 108.898 -15.5207
4704.954201 108.737 -16.5854
4739.048239 108.563 -17.5651
4773.389336 108.375 -18.4506
4807.979283 108.176 -19.2337
4842.819883 107.967 -19.9061
4877.912952 107.749 -20.4598
4913.260320 107.523 -20.8855
4948.863830 107.291 -21.1724
4984.725337 107.054 -21.3061
5020.846712 106.816 -21.2695
5057.229836 106.581 -21.0462
5093.876609 106.354 -20.6288
5130.788938 106.145 -20.0314
5167.968750 105.960 -19.2969
5205.417982 105.801 -18.4851
5243.138586 105.669 -17.6485
5281.132530 105.558 -16.8177
5319.401793 105.465 -16.0075
5357.948371 105.387 -15.2212
5396.774274 105.320 -14.4494
5435.881525 105.264 -13.6745
5475.272163 105.220 -12.8821
5514.948243 105.191 -12.0692
5554.911831 105.179 -11.2461
5595.165012 105.188 -10.4335
5635.709884 105.219 -9.6594
5676.548561 105.272 -8.9557
5717.683172 105.347 -8.3556
5759.115861 105.442 -7.8923
5800.848789 105.552 -7.5966
5842.884130 105.673 -7.4949
5885.224077 105.800 -7.6074
5927.870837 105.925 -7.9460
5970.826633 106.042 -8.5122
6014.093704 106.142 -9.2957
6057.674306 106.219 -10.2736
6101.570711 106.266 -11.4112
6145.785208 106.278 -12.6635
6190.320101 106.252 -13.9777
6235.177712 106.187 -15.2968
6280.360380 106.082 -16.5636
6325.870460 105.942 -17.7241
6371.710325 105.770 -18.7309
6417.882365 105.572 -19.5463
6464.388986 105.357 -20.1434
6511.232613 105.130 -20.5071
6558.415689 104.900 -20.6337
6605.940673 104.674 -20.5290
6653.810042 104.457 -20.2076
6702.026292 104.257 -19.6904
6750.591937 104.078 -19.0030
6799.509509 103.923 -18.1738
6848.781558 103.795 -17.2327
6898.410653 103.699 -16.2102
6948.399380 103.634 -15.1374
6998.750346 103.603 -14.0464
7049.466176 103.607 -12.9703
7100.549514 103.646 -11.9443
7152.003023 103.721 -11.0055
7203.829385 103.831 -10.1925
7256.031302 103.974 -9.5455
7308.611496 104.149 -9.1062
7361.572708 104.352 -8.9180
7414.917698 104.580 -9.0249
7468.649249 104.825 -9.4703
7522.770160 105.080 -10.2940
7577.283253 105.335 -11.5288
7632.191371 105.579 -13.1960
7687.497376 105.799 -15.3011
7743.204151 105.980 -17.8305
7799.314600 106.108 -20.7486
7855.831649 106.170 -23.9978
7912.758244 106.155 -27.4999
7970.097352 106.055 -31.1599
8027.851962 105.865 -34.8723
8086.025087 105.582 -38.5275
8144.619758 105.209 -42.0180
8203.639030 104.752 -45.2425
8263.085980 104.217 -48.1096
8322.963708 103.615 -50.5422
8383.275334 102.958 -52.4836
8444.024002 102.261 -53.9027
8505.212881 101.537 -54.7932
8566.845160 100.798 -55.1688
8628.924051 100.055 -55.0553
8691.452792 99.318 -54.4833
8754.434642 98.592 -53.4831
8817.872884 97.885 -52.0823
8881.770826 97.199 -50.3043
8946.131799 96.538 -48.1672
9010.959157 95.904 -45.6828
9076.256282 95.300 -42.8551
9142.026576 94.729 -39.6804
9208.273470 94.196 -36.1493
9275.000415 93.707 -32.2489
9342.210891 93.270 -27.9700
9409.908403 92.896 -23.3162
9478.096478 92.599 -18.3165
9546.778672 92.392 -13.0386
9615.958566 92.288 -7.5996
9685.639765 92.295 -2.1663
9755.825904 92.412 3.0610
9826.520640 92.629 7.8799
9897.727659 92.928 12.1233
9969.450674 93.282 15.6864
10041.693423 93.666 18.5381
10114.459673 94.052 20.7139
10187.753217 94.420 22.2999
10261.577877 94.755 23.4125
10335.937500 95.048 24.1812
10410.835964 95.294 24.7341
10486.277173 95.496 25.1870
10562.265060 95.659 25.6373
10638.803587 95.792 26.1598
10715.896743 95.904 26.8063
10793.548548 96.005 27.6060
10871.763050 96.105 28.5686
10950.544327 96.215 29.6872
11029.896485 96.342 30.9414
11109.823662 96.493 32.3008
11190.330024 96.676 33.7273
11271.419768 96.894 35.1773
11353.097122 97.152 36.6013
11435.366344 97.452 37.9444
11518.231722 97.796 39.1458
11601.697577 98.184 40.1388
11685.768261 98.613 40.8518
11770.448155 99.077 41.2097
11855.741674 99.570 41.1383
11941.653265 100.080 40.5698
12028.187408 100.592 39.4507
12115.348612 101.089 37.7491
12203.141422 101.552 35.4620
12291.570415 101.961 32.6195
12380.640201 102.296 29.2870
12470.355424 102.541 25.5649
12560.720760 102.682 21.5844
12651.740920 102.711 17.4996
12743.420650 102.627 13.4766
12835.764729 102.436 9.6789
12928.777972 102.150 6.2536
13022.465227 101.786 3.3204
13116.831378 101.364 0.9633
13211.881345 100.907 -0.7711
13307.620084 100.439 -1.8734
13404.052584 99.984 -2.3683
13501.183875 99.564 -2.3134
13599.019019 99.198 -1.7947
13697.563116 98.900 -0.9140
13796.821305 98.680 0.2266
13896.798760 98.548 1.5296
13997.500692 98.510 2.8921
14098.932352 98.574 4.1953
14201.099028 98.744 5.2988
14304.006046 99.018 6.0411
14407.658770 99.388 6.2478
14512.062604 99.838 5.7472
14617.222992 100.341 4.3894
14723.145416 100.861 2.0667
14829.835397 101.359 -1.2683
14937.298497 101.788 -5.5881
15045.540320 102.107 -10.7813
15154.566507 102.276 -16.6520
15264.382743 102.268 -22.9288
15374.994752 102.070 -29.2914
15486.408302 101.684 -35.4118
15598.629201 101.130 -41.0008
15711.663298 100.440 -45.8422
15825.516487 99.656 -49.8082
15940.194703 98.823 -52.8618
16055.703925 97.991 -55.0558
16172.050174 97.208 -56.5306
16289.239516 96.517 -57.5092
16407.278061 95.954 -58.2839
16526.171961 95.536 -59.1900
16645.927415 95.261 -60.5678
16766.550667 95.102 -62.7156
16888.048005 95.007 -65.8446
17010.425762 94.911 -70.0439
17133.690320 94.743 -75.2589
17257.848103 94.436 -81.2868
17382.905584 93.938 -87.7967
17508.869284 93.221 -94.3807
17635.745768 92.278 -100.6233
17763.541652 91.122 -106.1582
17892.263597 89.779 -110.6950
18021.918315 88.281 -114.0195
18152.512564 86.659 -115.9870
18284.053153 84.949 -116.5118
18416.546939 83.182 -115.5651
18550.000830 81.392 -113.1745
18684.421783 79.609 -109.4053
18819.816805 77.866 -104.3284
18956.192956 76.196 -98.0280
19093.557344 74.637 -90.6497
19231.917131 73.225 -82.4397
19371.279531 71.996 -73.8121
19511.651807 70.978 -65.4317
19653.041280 70.192 -58.1545
19795.455318 69.652 -52.8138
19938.901348 69.376 -50.0452
