* Measurement data measured by REW V5.31.3
* Source: Микрофон (2- CX31993 384Khz HIFI AUDIO), MICROPHONE (Общая громкость), L, volume: 0,250
* Format: 256k Log Swept Sine, 1 sweep at -20,0 dBFS with no timing reference
* Dated: 19.12.2024 17:56:56
* REW Settings:
*  C-weighting compensation: Off
*  Target level: 75.0 dB
* Note: 
* Measurement: YU9 Yan w/o foam
* Smoothing: 1/12 octave
* Frequency Step: 96 ppo
* Start Frequency: 20.141602 Hz
*
* Freq(Hz) SPL(dB) Phase(degrees)
20.141602 74.814 -151.3426
20.287556 74.816 -151.4959
20.434568 74.820 -151.7197
20.582645 74.824 -151.9899
20.731796 74.828 -152.2862
20.882027 74.832 -152.5938
21.033346 74.836 -152.9037
21.185763 74.840 -153.2114
21.339284 74.844 -153.5154
21.493917 74.847 -153.8163
21.649671 74.850 -154.1162
21.806553 74.852 -154.4175
21.964572 74.854 -154.7230
22.123737 74.854 -155.0349
22.284054 74.854 -155.3550
22.445534 74.853 -155.6842
22.608183 74.850 -156.0227
22.772012 74.847 -156.3692
22.937027 74.843 -156.7217
23.103238 74.840 -157.0775
23.270654 74.838 -157.4331
23.439282 74.837 -157.7850
23.609133 74.839 -158.1298
23.780215 74.845 -158.4648
23.952536 74.854 -158.7880
24.126106 74.867 -159.0990
24.300934 74.884 -159.3983
24.477028 74.905 -159.6879
24.654399 74.928 -159.9704
24.833055 74.953 -160.2494
25.013005 74.978 -160.5283
25.194260 75.001 -160.8100
25.376828 75.021 -161.0970
25.560719 75.036 -161.3905
25.745942 75.045 -161.6910
25.932508 75.047 -161.9979
26.120426 75.042 -162.3103
26.309705 75.030 -162.6271
26.500356 75.013 -162.9475
26.692388 74.991 -163.2712
26.885812 74.966 -163.5986
27.080638 74.941 -163.9306
27.276876 74.916 -164.2680
27.474535 74.893 -164.6114
27.673627 74.873 -164.9604
27.874161 74.856 -165.3134
28.076149 74.843 -165.6671
28.279600 74.833 -166.0173
28.484526 74.827 -166.3589
28.690937 74.823 -166.6872
28.898843 74.820 -166.9982
29.108256 74.819 -167.2903
29.319186 74.819 -167.5637
29.531645 74.819 -167.8213
29.745644 74.818 -168.0683
29.961193 74.818 -168.3109
30.178304 74.817 -168.5559
30.396989 74.814 -168.8092
30.617258 74.811 -169.0754
30.839123 74.806 -169.3565
31.062596 74.799 -169.6524
31.287688 74.792 -169.9604
31.514412 74.783 -170.2764
31.742778 74.774 -170.5948
31.972800 74.765 -170.9102
32.204488 74.756 -171.2178
32.437855 74.748 -171.5139
32.672913 74.740 -171.7970
32.909674 74.733 -172.0675
33.148151 74.727 -172.3275
33.388356 74.720 -172.5803
33.630302 74.714 -172.8295
33.874001 74.707 -173.0784
34.119466 74.700 -173.3293
34.366710 74.691 -173.5832
34.615745 74.681 -173.8396
34.866585 74.670 -174.0977
35.119243 74.659 -174.3563
35.373731 74.648 -174.6148
35.630064 74.638 -174.8734
35.888254 74.629 -175.1330
36.148315 74.620 -175.3950
36.410261 74.612 -175.6600
36.674104 74.605 -175.9283
36.939860 74.598 -176.1989
37.207542 74.590 -176.4701
37.477163 74.581 -176.7400
37.748738 74.571 -177.0072
38.022281 74.561 -177.2706
38.297806 74.550 -177.5298
38.575327 74.538 -177.7848
38.854860 74.525 -178.0354
39.136419 74.511 -178.2819
39.420017 74.496 -178.5242
39.705671 74.480 -178.7633
39.993395 74.465 -179.0003
40.283203 74.450 -179.2370
40.575112 74.435 -179.4749
40.869136 74.421 -179.7146
41.165290 74.407 -179.9557
41.463591 74.393 179.8033
41.764053 74.379 179.5636
42.066693 74.365 179.3258
42.371525 74.350 179.0892
42.678567 74.335 178.8529
42.987834 74.319 178.6160
43.299341 74.304 178.3793
43.613106 74.289 178.1447
43.929145 74.276 177.9138
44.247473 74.264 177.6866
44.568109 74.254 177.4609
44.891068 74.245 177.2326
45.216367 74.235 176.9987
45.544023 74.223 176.7576
45.874054 74.208 176.5095
46.206476 74.190 176.2520
46.541307 74.172 175.9772
46.878565 74.155 175.6702
47.218266 74.142 175.3147
47.560429 74.130 174.9032
47.905072 74.118 174.4477
48.252212 74.101 173.9834
48.601867 74.078 173.5612
48.954056 74.049 173.2300
49.308798 74.017 173.0180
49.666109 73.988 172.9201
50.026010 73.962 172.9003
50.388520 73.941 172.9084
50.753656 73.921 172.9008
51.121437 73.901 172.8544
51.491884 73.880 172.7682
51.865016 73.859 172.6537
52.240851 73.843 172.5226
52.619410 73.831 172.3804
53.000712 73.825 172.2276
53.384777 73.821 172.0640
53.771625 73.816 171.8914
54.161276 73.807 171.7129
54.553751 73.792 171.5297
54.949070 73.773 171.3400
55.347254 73.750 171.1412
55.748323 73.725 170.9344
56.152298 73.698 170.7256
56.559201 73.672 170.5244
56.969052 73.646 170.3388
57.381873 73.622 170.1711
57.797686 73.599 170.0165
58.216512 73.577 169.8654
58.638373 73.555 169.7080
59.063291 73.534 169.5381
59.491288 73.512 169.3546
59.922386 73.490 169.1605
60.356608 73.469 168.9614
60.793977 73.447 168.7625
61.234515 73.425 168.5673
61.678246 73.404 168.3774
62.125192 73.381 168.1923
62.575377 73.359 168.0105
63.028824 73.336 167.8315
63.485557 73.312 167.6562
63.945599 73.288 167.4859
64.408975 73.264 167.3214
64.875709 73.240 167.1607
65.345825 73.216 167.0007
65.819348 73.192 166.8386
66.296302 73.168 166.6738
66.776713 73.144 166.5083
67.260604 73.119 166.3442
67.748002 73.093 166.1838
68.238932 73.067 166.0282
68.733420 73.041 165.8783
69.231490 73.014 165.7336
69.733170 72.987 165.5919
70.238485 72.960 165.4507
70.747463 72.934 165.3086
71.260128 72.908 165.1661
71.776508 72.882 165.0240
72.296630 72.856 164.8816
72.820521 72.830 164.7368
73.348209 72.804 164.5878
73.879720 72.778 164.4344
74.415083 72.751 164.2781
74.954326 72.724 164.1212
75.497475 72.696 163.9662
76.044561 72.668 163.8158
76.595612 72.640 163.6717
77.150655 72.613 163.5341
77.709720 72.586 163.4018
78.272837 72.558 163.2732
78.840034 72.531 163.1467
79.411342 72.502 163.0209
79.986789 72.473 162.8956
80.566406 72.443 162.7726
81.150224 72.411 162.6553
81.738272 72.380 162.5457
82.330581 72.348 162.4423
82.927182 72.317 162.3409
83.528107 72.286 162.2369
84.133386 72.256 162.1283
84.743051 72.227 162.0162
85.357134 72.197 161.9039
85.975667 72.167 161.7943
86.598682 72.137 161.6875
87.226212 72.108 161.5815
87.858289 72.078 161.4750
88.494946 72.049 161.3693
89.136217 72.021 161.2668
89.782135 71.994 161.1681
90.432733 71.966 161.0713
91.088046 71.938 160.9742
91.748108 71.909 160.8765
92.412952 71.879 160.7791
93.082615 71.848 160.6837
93.757130 71.817 160.5912
94.436533 71.786 160.5020
95.120859 71.755 160.4158
95.810144 71.724 160.3307
96.504423 71.693 160.2451
97.203734 71.662 160.1581
97.908112 71.631 160.0709
98.617595 71.600 159.9853
99.332219 71.568 159.9028
100.052021 71.535 159.8244
100.777039 71.503 159.7498
101.507311 71.470 159.6782
102.242875 71.438 159.6087
102.983769 71.405 159.5413
103.730032 71.373 159.4770
104.481702 71.340 159.4162
105.238820 71.308 159.3577
106.001424 71.277 159.2998
106.769554 71.246 159.2430
107.543250 71.216 159.1893
108.322553 71.186 159.1411
109.107503 71.156 159.0986
109.898141 71.124 159.0600
110.694508 71.092 159.0226
111.496646 71.059 158.9845
112.304596 71.025 158.9451
113.118402 70.991 158.9041
113.938104 70.957 158.8610
114.763747 70.923 158.8155
115.595372 70.888 158.7685
116.433024 70.855 158.7224
117.276746 70.821 158.6794
118.126581 70.788 158.6404
118.982575 70.756 158.6038
119.844772 70.724 158.5677
120.713217 70.692 158.5316
121.587954 70.661 158.4958
122.469031 70.628 158.4611
123.356492 70.596 158.4287
124.250384 70.563 158.4007
125.150753 70.530 158.3787
126.057647 70.497 158.3618
126.971113 70.464 158.3472
127.891198 70.431 158.3318
128.817950 70.397 158.3141
129.751418 70.363 158.2937
130.691651 70.328 158.2708
131.638696 70.295 158.2474
132.592604 70.261 158.2278
133.553425 70.227 158.2168
134.521208 70.193 158.2159
135.496004 70.159 158.2227
136.477864 70.125 158.2332
137.466839 70.092 158.2448
138.462981 70.059 158.2566
139.466340 70.026 158.2685
140.476971 69.993 158.2816
141.494925 69.960 158.2973
142.520256 69.926 158.3166
143.553016 69.891 158.3391
144.593260 69.857 158.3632
145.641043 69.823 158.3864
146.696418 69.790 158.4069
147.759441 69.757 158.4247
148.830166 69.724 158.4413
149.908651 69.692 158.4580
150.994951 69.659 158.4759
152.089123 69.626 158.4957
153.191223 69.593 158.5178
154.301310 69.559 158.5430
155.419441 69.526 158.5719
156.545674 69.492 158.6048
157.680069 69.458 158.6413
158.822683 69.425 158.6805
159.973578 69.392 158.7219
161.132813 69.358 158.7655
162.300447 69.325 158.8113
163.476543 69.291 158.8589
164.661162 69.257 158.9083
165.854364 69.223 158.9595
167.056213 69.188 159.0121
168.266772 69.154 159.0652
169.486102 69.119 159.1180
170.714268 69.086 159.1713
171.951334 69.052 159.2262
173.197364 69.019 159.2846
174.452424 68.986 159.3470
175.716578 68.954 159.4126
176.989893 68.921 159.4798
178.272434 68.888 159.5475
179.564270 68.854 159.6153
180.865467 68.821 159.6832
182.176092 68.788 159.7523
183.496216 68.754 159.8242
184.825905 68.721 159.8998
186.165229 68.687 159.9789
187.514259 68.654 160.0600
188.873065 68.621 160.1412
190.241717 68.589 160.2220
191.620287 68.556 160.3036
193.008847 68.523 160.3883
194.407468 68.490 160.4772
195.816225 68.456 160.5703
197.235190 68.422 160.6656
198.664438 68.387 160.7615
200.104042 68.352 160.8568
201.554078 68.319 160.9517
203.014622 68.285 161.0476
204.485750 68.252 161.1459
205.967538 68.220 161.2477
207.460064 68.187 161.3537
208.963405 68.153 161.4643
210.477640 68.118 161.5796
212.002848 68.083 161.7001
213.539108 68.047 161.8262
215.086500 68.011 161.9579
216.645105 67.974 162.0958
218.215005 67.938 162.2403
219.796281 67.901 162.3936
221.389015 67.865 162.5586
222.993292 67.829 162.7377
224.609193 67.792 162.9313
226.236804 67.755 163.1376
227.876209 67.716 163.3530
229.527494 67.676 163.5741
231.190745 67.636 163.8028
232.866048 67.598 164.0463
234.553491 67.563 164.3105
236.253163 67.533 164.5966
237.965150 67.508 164.9017
239.689544 67.489 165.2196
241.426433 67.477 165.5415
243.175909 67.471 165.8551
244.938062 67.471 166.1460
246.712984 67.476 166.4005
248.500768 67.485 166.6096
250.301507 67.495 166.7691
252.115295 67.504 166.8797
253.942226 67.509 166.9479
255.782396 67.509 166.9858
257.635901 67.503 167.0095
259.502837 67.492 167.0341
261.383301 67.476 167.0700
263.277392 67.457 167.1214
265.185209 67.436 167.1880
267.106850 67.413 167.2674
269.042417 67.391 167.3568
270.992009 67.369 167.4540
272.955729 67.347 167.5565
274.933678 67.325 167.6616
276.925961 67.303 167.7673
278.932681 67.280 167.8729
280.953942 67.256 167.9791
282.989850 67.231 168.0878
285.040511 67.205 168.2009
287.106032 67.178 168.3199
289.186521 67.151 168.4457
291.282086 67.124 168.5777
293.392836 67.096 168.7144
295.518881 67.068 168.8543
297.660333 67.041 168.9965
299.817302 67.013 169.1406
301.989902 66.985 169.2867
304.178245 66.958 169.4363
306.382446 66.931 169.5913
308.602620 66.906 169.7541
310.838882 66.881 169.9268
313.091348 66.856 170.1092
315.360137 66.833 170.2982
317.645367 66.810 170.4904
319.947156 66.787 170.6843
322.265625 66.764 170.8801
324.600895 66.741 171.0783
326.953086 66.719 171.2790
329.322323 66.697 171.4813
331.708729 66.675 171.6840
334.112427 66.653 171.8860
336.533543 66.631 172.0876
338.972204 66.609 172.2896
341.428536 66.587 172.4938
343.902668 66.566 172.7012
346.394729 66.546 172.9108
348.904848 66.526 173.1198
351.433156 66.506 173.3252
353.979786 66.487 173.5266
356.544869 66.469 173.7261
359.128540 66.450 173.9268
361.730934 66.432 174.1305
364.352185 66.413 174.3375
366.992431 66.394 174.5473
369.651810 66.375 174.7590
372.330459 66.356 174.9727
375.028519 66.337 175.1891
377.746130 66.318 175.4096
380.483434 66.300 175.6341
383.240574 66.281 175.8615
386.017693 66.263 176.0910
388.814937 66.245 176.3221
391.632450 66.227 176.5550
394.470380 66.210 176.7896
397.328875 66.192 177.0254
400.208084 66.175 177.2613
403.108157 66.157 177.4967
406.029245 66.140 177.7326
408.971500 66.123 177.9702
411.935076 66.106 178.2102
414.920127 66.089 178.4527
417.926810 66.073 178.6978
420.955280 66.056 178.9454
424.005695 66.040 179.1955
427.078215 66.024 179.4474
430.173000 66.009 179.7004
433.290211 65.993 179.9547
436.430010 65.978 -179.7895
439.592562 65.963 -179.5316
442.778031 65.949 -179.2716
445.986583 65.935 -179.0085
449.218386 65.921 -178.7419
452.473607 65.907 -178.4718
455.752418 65.893 -178.1991
459.054987 65.880 -177.9247
462.381489 65.867 -177.6493
465.732096 65.854 -177.3729
469.106983 65.841 -177.0953
472.506325 65.828 -176.8166
475.930301 65.815 -176.5364
479.379088 65.803 -176.2539
482.852867 65.792 -175.9684
486.351817 65.781 -175.6802
489.876123 65.770 -175.3907
493.425968 65.759 -175.1020
497.001536 65.749 -174.8157
500.603014 65.738 -174.5315
504.230589 65.727 -174.2476
507.884452 65.717 -173.9620
511.564792 65.706 -173.6730
515.271802 65.695 -173.3798
519.005673 65.685 -173.0819
522.766602 65.675 -172.7797
526.554785 65.666 -172.4744
530.370418 65.657 -172.1670
534.213700 65.648 -171.8579
538.084833 65.639 -171.5469
541.984018 65.630 -171.2338
545.911457 65.622 -170.9182
549.867357 65.614 -170.6003
553.851922 65.606 -170.2803
557.865362 65.598 -169.9587
561.907884 65.591 -169.6347
565.979700 65.584 -169.3067
570.081022 65.578 -168.9738
574.212064 65.571 -168.6362
578.373042 65.565 -168.2949
582.564171 65.559 -167.9514
586.785671 65.553 -167.6063
591.037762 65.546 -167.2594
595.320665 65.540 -166.9098
599.634604 65.534 -166.5564
603.979804 65.528 -166.1991
608.356491 65.524 -165.8387
612.764893 65.520 -165.4769
617.205240 65.517 -165.1147
621.677763 65.514 -164.7519
626.182696 65.512 -164.3875
630.720274 65.510 -164.0206
635.290733 65.508 -163.6503
639.894312 65.506 -163.2759
644.531250 65.505 -162.8966
649.201789 65.504 -162.5126
653.906173 65.503 -162.1245
658.644647 65.503 -161.7331
663.417457 65.503 -161.3387
668.224854 65.504 -160.9414
673.067086 65.505 -160.5410
677.944408 65.506 -160.1360
682.857073 65.507 -159.7248
687.805336 65.510 -159.3064
692.789457 65.513 -158.8817
697.809695 65.517 -158.4530
702.866312 65.522 -158.0222
707.959571 65.528 -157.5903
713.089738 65.534 -157.1568
718.257080 65.541 -156.7209
723.461867 65.548 -156.2822
728.704370 65.555 -155.8401
733.984862 65.563 -155.3939
739.303619 65.573 -154.9428
744.660918 65.583 -154.4866
750.057038 65.595 -154.0253
755.492260 65.608 -153.5592
760.966869 65.622 -153.0895
766.481148 65.636 -152.6169
772.035387 65.651 -152.1409
777.629873 65.667 -151.6609
783.264900 65.684 -151.1769
788.940760 65.701 -150.6895
794.657750 65.720 -150.1988
800.416168 65.739 -149.7044
806.216313 65.760 -149.2063
812.058489 65.782 -148.7043
817.943000 65.805 -148.1983
823.870152 65.829 -147.6879
829.840255 65.854 -147.1738
835.853619 65.881 -146.6575
841.910559 65.910 -146.1403
848.011390 65.940 -145.6221
854.156430 65.972 -145.1025
860.346000 66.006 -144.5813
866.580422 66.042 -144.0583
872.860020 66.079 -143.5338
879.185124 66.117 -143.0076
885.556062 66.157 -142.4806
891.973166 66.198 -141.9533
898.436771 66.240 -141.4264
904.947215 66.284 -140.9002
911.504835 66.330 -140.3753
918.109975 66.377 -139.8526
924.762978 66.426 -139.3329
931.464192 66.477 -138.8171
938.213966 66.529 -138.3055
945.012651 66.584 -137.7983
951.860602 66.640 -137.2954
958.758176 66.699 -136.7966
965.705733 66.759 -136.3021
972.703635 66.821 -135.8123
979.752246 66.885 -135.3277
986.851935 66.950 -134.8486
994.003071 67.017 -134.3757
1001.206027 67.084 -133.9102
1008.461179 67.153 -133.4531
1015.768904 67.223 -133.0054
1023.129584 67.295 -132.5675
1030.543603 67.367 -132.1398
1038.011347 67.441 -131.7221
1045.533205 67.516 -131.3146
1053.109569 67.591 -130.9182
1060.740836 67.668 -130.5328
1068.427401 67.744 -130.1573
1076.169666 67.822 -129.7904
1083.968035 67.901 -129.4312
1091.822915 67.980 -129.0799
1099.734713 68.060 -128.7376
1107.703844 68.140 -128.4049
1115.730723 68.221 -128.0818
1123.815768 68.303 -127.7682
1131.959400 68.385 -127.4636
1140.162045 68.466 -127.1684
1148.424129 68.548 -126.8836
1156.746083 68.629 -126.6097
1165.128342 68.711 -126.3466
1173.571343 68.792 -126.0933
1182.075524 68.873 -125.8488
1190.641331 68.953 -125.6118
1199.269209 69.033 -125.3817
1207.959608 69.113 -125.1579
1216.712981 69.192 -124.9398
1225.529785 69.271 -124.7267
1234.410479 69.348 -124.5176
1243.355526 69.426 -124.3112
1252.365393 69.502 -124.1066
1261.440549 69.578 -123.9037
1270.581467 69.653 -123.7033
1279.788624 69.728 -123.5056
1289.062500 69.802 -123.3106
1298.403578 69.876 -123.1173
1307.812346 69.950 -122.9239
1317.289293 70.023 -122.7288
1326.834914 70.097 -122.5309
1336.449707 70.170 -122.3304
1346.134173 70.243 -122.1277
1355.888816 70.316 -121.9234
1365.714145 70.389 -121.7175
1375.610673 70.462 -121.5094
1385.578915 70.535 -121.2986
1395.619391 70.609 -121.0851
1405.732624 70.682 -120.8687
1415.919142 70.756 -120.6493
1426.179476 70.830 -120.4267
1436.514160 70.905 -120.2006
1446.923734 70.980 -119.9710
1457.408740 71.056 -119.7384
1467.969724 71.132 -119.5030
1478.607238 71.209 -119.2644
1489.321836 71.286 -119.0221
1500.114076 71.365 -118.7762
1510.984521 71.445 -118.5271
1521.933737 71.527 -118.2755
1532.962297 71.609 -118.0212
1544.070773 71.693 -117.7643
1555.259747 71.778 -117.5044
1566.529800 71.865 -117.2416
1577.881521 71.953 -116.9758
1589.315501 72.042 -116.7074
1600.832336 72.133 -116.4368
1612.432627 72.225 -116.1645
1624.116978 72.320 -115.8912
1635.886000 72.416 -115.6171
1647.740304 72.514 -115.3428
1659.680509 72.614 -115.0685
1671.707238 72.716 -114.7940
1683.821118 72.819 -114.5193
1696.022780 72.926 -114.2445
1708.312860 73.034 -113.9704
1720.692000 73.144 -113.6979
1733.160843 73.257 -113.4279
1745.720041 73.373 -113.1606
1758.370248 73.491 -112.8962
1771.112124 73.611 -112.6351
1783.946332 73.735 -112.3782
1796.873543 73.861 -112.1263
1809.894429 73.990 -111.8803
1823.009670 74.121 -111.6407
1836.219950 74.256 -111.4077
1849.525956 74.393 -111.1817
1862.928384 74.534 -110.9638
1876.427931 74.678 -110.7547
1890.025301 74.825 -110.5550
1903.721204 74.976 -110.3655
1917.516352 75.131 -110.1868
1931.411466 75.289 -110.0202
1945.407270 75.451 -109.8670
1959.504493 75.617 -109.7288
1973.703870 75.787 -109.6070
1988.006142 75.960 -109.5028
2002.412054 76.139 -109.4177
2016.922357 76.321 -109.3534
2031.537808 76.508 -109.3121
2046.259169 76.700 -109.2963
2061.087206 76.896 -109.3080
2076.022694 77.096 -109.3489
2091.066410 77.301 -109.4205
2106.219139 77.510 -109.5250
2121.481671 77.724 -109.6652
2136.854802 77.941 -109.8449
2152.339333 78.162 -110.0678
2167.936071 78.388 -110.3372
2183.645829 78.619 -110.6565
2199.469427 78.853 -111.0290
2215.407689 79.091 -111.4584
2231.461446 79.333 -111.9490
2247.631536 79.579 -112.5054
2263.918800 79.827 -113.1326
2280.324089 80.078 -113.8355
2296.848258 80.331 -114.6193
2313.492167 80.585 -115.4888
2330.256685 80.839 -116.4491
2347.142685 81.093 -117.5047
2364.151049 81.345 -118.6596
2381.282662 81.594 -119.9169
2398.538418 81.838 -121.2792
2415.919216 82.077 -122.7484
2433.425962 82.308 -124.3254
2451.059570 82.529 -126.0097
2468.820958 82.738 -127.7996
2486.711052 82.934 -129.6918
2504.730786 83.115 -131.6808
2522.881098 83.279 -133.7593
2541.162934 83.424 -135.9175
2559.577248 83.548 -138.1440
2578.125000 83.651 -140.4256
2596.807157 83.730 -142.7477
2615.624692 83.786 -145.0951
2634.578586 83.817 -147.4514
2653.669829 83.824 -149.8000
2672.899414 83.808 -152.1246
2692.268345 83.768 -154.4092
2711.777632 83.706 -156.6389
2731.428290 83.623 -158.8000
2751.221345 83.521 -160.8804
2771.157829 83.401 -162.8700
2791.238781 83.265 -164.7605
2811.465248 83.116 -166.5455
2831.838284 82.954 -168.2206
2852.358952 82.782 -169.7828
2873.028321 82.603 -171.2306
2893.847468 82.417 -172.5641
2914.817480 82.226 -173.7843
2935.939449 82.032 -174.8935
2957.214476 81.836 -175.8945
2978.643672 81.639 -176.7908
3000.228152 81.443 -177.5861
3021.969041 81.249 -178.2841
3043.867475 81.057 -178.8889
3065.924593 80.869 -179.4048
3088.141547 80.685 -179.8367
3110.519493 80.506 179.8102
3133.059600 80.333 179.5299
3155.763041 80.167 179.3153
3178.631001 80.008 179.1589
3201.664672 79.856 179.0529
3224.865254 79.712 178.9896
3248.233957 79.574 178.9628
3271.771999 79.443 178.9674
3295.480608 79.318 179.0007
3319.361019 79.198 179.0615
3343.414477 79.083 179.1504
3367.642236 78.973 179.2682
3392.045560 78.868 179.4160
3416.625721 78.768 179.5941
3441.383999 78.673 179.8021
3466.321686 78.583 -179.9608
3491.440082 78.499 -179.6962
3516.740496 78.421 -179.4057
3542.224247 78.350 -179.0913
3567.892664 78.285 -178.7551
3593.747085 78.227 -178.3988
3619.788858 78.175 -178.0247
3646.019340 78.131 -177.6346
3672.439900 78.093 -177.2306
3699.051913 78.063 -176.8147
3725.856768 78.040 -176.3886
3752.855862 78.024 -175.9540
3780.050603 78.016 -175.5130
3807.442408 78.015 -175.0674
3835.032705 78.023 -174.6190
3862.822933 78.038 -174.1699
3890.814540 78.062 -173.7225
3919.008986 78.094 -173.2792
3947.407741 78.134 -172.8427
3976.012284 78.183 -172.4153
4004.824108 78.242 -171.9996
4033.844715 78.309 -171.5984
4063.075616 78.387 -171.2150
4092.518337 78.474 -170.8533
4122.174412 78.571 -170.5175
4152.045387 78.679 -170.2122
4182.132820 78.799 -169.9424
4212.438278 78.929 -169.7142
4242.963342 79.072 -169.5342
4273.709604 79.227 -169.4102
4304.678665 79.394 -169.3510
4335.872141 79.574 -169.3671
4367.291658 79.767 -169.4701
4398.938854 79.973 -169.6730
4430.815378 80.191 -169.9902
4462.922893 80.422 -170.4373
4495.263072 80.663 -171.0309
4527.837601 80.914 -171.7886
4560.648179 81.173 -172.7285
4593.696515 81.437 -173.8686
4626.984334 81.703 -175.2266
4660.513370 81.967 -176.8184
4694.285371 82.226 -178.6571
4728.302098 82.472 179.2484
4762.565324 82.701 176.8950
4797.076835 82.905 174.2862
4831.838432 83.079 171.4339
4866.851925 83.214 168.3593
4902.119140 83.306 165.0927
4937.641916 83.347 161.6740
4973.422105 83.333 158.1512
5009.461572 83.261 154.5790
5045.762195 83.130 151.0162
5082.325868 82.940 147.5225
5119.154496 82.694 144.1548
5156.250000 82.395 140.9638
5193.614313 82.051 137.9921
5231.249383 81.666 135.2715
5269.157173 81.249 132.8237
5307.339658 80.807 130.6596
5345.798829 80.347 128.7810
5384.536691 79.874 127.1823
5423.555263 79.395 125.8525
5462.856580 78.914 124.7776
5502.442691 78.435 123.9418
5542.315659 77.959 123.3291
5582.477563 77.491 122.9241
5622.930497 77.031 122.7118
5663.676569 76.580 122.6781
5704.717904 76.141 122.8094
5746.056642 75.714 123.0925
5787.694937 75.300 123.5146
5829.634960 74.900 124.0635
5871.878898 74.514 124.7277
5914.428953 74.143 125.4967
5957.287343 73.786 126.3609
6000.456303 73.443 127.3112
6043.938083 73.115 128.3396
6087.734950 72.800 129.4390
6131.849187 72.499 130.6030
6176.283094 72.213 131.8260
6221.038987 71.939 133.1027
6266.119200 71.679 134.4280
6311.526083 71.431 135.7972
6357.262002 71.197 137.2055
6403.329344 70.975 138.6483
6449.730508 70.764 140.1222
6496.467914 70.566 141.6251
6543.543998 70.378 143.1558
6590.961215 70.202 144.7141
6638.722037 70.035 146.3006
6686.828954 69.879 147.9170
6735.284473 69.734 149.5661
6784.091120 69.598 151.2513
6833.251441 69.473 152.9766
6882.767998 69.359 154.7463
6932.643372 69.259 156.5635
6982.880164 69.172 158.4295
7033.480992 69.102 160.3417
7084.448495 69.049 162.2939
7135.785329 69.014 164.2769
7187.494171 68.999 166.2801
7239.577717 69.004 168.2939
7292.038681 69.029 170.3106
7344.879799 69.074 172.3245
7398.103826 69.141 174.3304
7451.713536 69.230 176.3241
7505.711724 69.342 178.3008
7560.101205 69.479 -179.7450
7614.884815 69.640 -177.8204
7670.065409 69.830 -175.9347
7725.645865 70.049 -174.0984
7781.629080 70.300 -172.3246
7838.017972 70.587 -170.6297
7894.815481 70.912 -169.0361
7952.024569 71.280 -167.5723
8009.648217 71.693 -166.2760
8067.689429 72.157 -165.1957
8126.151233 72.673 -164.3932
8185.036674 73.243 -163.9451
8244.348824 73.865 -163.9422
8304.090774 74.532 -164.4864
8364.265639 75.233 -165.6835
8424.876556 75.949 -167.6334
8485.926684 76.656 -170.4171
8547.419207 77.324 -174.0823
8609.357330 77.918 -178.6304
8671.744282 78.404 175.9971
8734.583316 78.747 169.9265
8797.877707 78.920 163.3539
8861.630756 78.904 156.5345
8925.845785 78.692 149.7558
8990.526143 78.291 143.3009
9055.675202 77.721 137.4145
9121.296357 77.008 132.2806
9187.393031 76.185 128.0158
9253.968668 75.284 124.6721
9321.026740 74.339 122.2466
9388.570742 73.377 120.6927
9456.604196 72.424 119.9333
9525.130648 71.500 119.8727
9594.153671 70.618 120.4080
9663.676863 69.788 121.4384
9733.703850 69.014 122.8717
9804.238280 68.296 124.6285
9875.283832 67.634 126.6441
9946.844210 67.025 128.8674
10018.923143 66.465 131.2589
10091.524390 65.951 133.7872
10164.651736 65.478 136.4281
10238.308993 65.045 139.1625
10312.500000 64.648 141.9758
10387.228626 64.285 144.8572
10462.498767 63.954 147.7993
10538.314345 63.655 150.7971
10614.679315 63.387 153.8469
10691.597657 63.149 156.9440
10769.073381 62.940 160.0834
10847.110526 62.760 163.2603
10925.713161 62.609 166.4694
11004.885382 62.487 169.7065
11084.631318 62.395 172.9688
11164.955126 62.333 176.2549
11245.860993 62.302 179.5641
11327.353138 62.304 -177.1051
11409.435808 62.341 -173.7561
11492.113283 62.416 -170.3936
11575.389873 62.532 -167.0257
11659.269920 62.694 -163.6613
11743.757796 62.909 -160.3121
11828.857906 63.182 -156.9947
11914.574686 63.524 -153.7356
12000.912606 63.945 -150.5761
12087.876166 64.455 -147.5791
12175.469900 65.067 -144.8353
12263.698373 65.789 -142.4685
12352.566187 66.624 -140.6367
12442.077974 67.566 -139.5293
12532.238400 68.595 -139.3544
12623.052165 69.677 -140.3169
12714.524005 70.769 -142.5924
12806.658687 71.816 -146.3000
12899.461015 72.758 -151.4777
12992.935827 73.532 -158.0555
13087.087996 74.074 -165.8274
13181.922430 74.334 -174.4303
13277.444074 74.277 176.6424
13373.657907 73.901 167.9604
13470.568945 73.231 160.0377
13568.182241 72.312 153.2522
13666.502883 71.201 147.8323
13765.535996 69.955 143.8779
13865.286744 68.630 141.3871
13965.760328 67.277 140.2777
14066.961984 65.943 140.4060
14168.896989 64.667 141.5887
14271.570658 63.476 143.6276
14374.988342 62.390 146.3311
14479.155433 61.414 149.5307
14584.077362 60.549 153.0902
14689.759598 59.788 156.9080
14796.207652 59.122 160.9133
14903.427072 58.539 165.0584
15011.423448 58.029 169.3112
15120.202410 57.587 173.6494
15229.769630 57.204 178.0575
15340.130819 56.878 -177.4755
15451.291730 56.606 -172.9584
15563.258160 56.388 -168.3975
15676.035944 56.221 -163.7961
15789.630962 56.106 -159.1568
15904.049137 56.045 -154.4851
16019.296433 56.039 -149.7890
16135.378859 56.092 -145.0775
16252.302465 56.209 -140.3633
16370.073348 56.394 -135.6692
16488.697648 56.655 -131.0336
16608.181548 56.998 -126.5165
16728.531278 57.432 -122.2045
16849.753112 57.963 -118.2145
16971.853368 58.592 -114.6947
17094.838414 59.315 -111.8198
17218.714660 60.117 -109.7782
17343.488565 60.972 -108.7509
17469.166632 61.843 -108.8864
17595.755415 62.688 -110.2757
17723.261512 63.454 -112.9295
17851.691571 64.092 -116.7608
17981.052287 64.550 -121.5700
18111.350404 64.789 -127.0398
18242.592715 64.784 -132.7525
18374.786062 64.531 -138.2388
18507.937336 64.049 -143.0485
18642.053479 63.376 -146.8092
18777.141484 62.564 -149.2556
18913.208391 61.670 -150.2395
19050.261296 60.758 -149.7384
19188.307342 59.888 -147.8717
19327.353727 59.119 -144.9176
19467.407699 58.491 -141.3095
19608.476560 58.025 -137.5838
19750.567664 57.715 -134.2822
19893.688419 57.535 -131.8485
20037.846286 57.456 -130.5682
